####### Preamble ##########################

#	byt_nr=1

#	bit_nr=8

#	encdg=BIN

#	bn_fmt=RI

#	byt_or=MSB

#	nr_pt=10000

#	wfid="Ch1, DC coupling, 1.0E-1 V/div, 2.0E0 s/div, 10000 points, Sample mode"

#	pt_fmt=Y

#	xincr=2.0E-3

#	pt_off=0

#	xzero=-1.0E1

#	xunit="s"

#	ymult=4.0E-3

#	yzero=0.0E0

#	yoff=0.0E0

#	yunit="V"

#######  Cursor ##########################

#VBA;IND;"s";8.48E0;-1.04E0;0.0E0;9.52E0;CURSOR2;-4.4E-2;-4.4E-2;6.2E-2;-5.8E-2;1.2E-1;CURSOR1;"V";CURSOR2;CURSOR2X;-4.2E-1;-6.2E0;4.2E-1;6.6E0;RECT;0.0E0;0.0E0;0.0E0;0.0E0;0.0E0;0.0E0;9.9E37;9.9E37;9.9E37;9.9E37;9.9E37;9.9E37;9.9E37;9.9E37;9.9E37;9.9E37;9.9E37;9.9E37


#######  Data ##########################

#RIB;REF1;CH1;1;10000;1


# Delete the above lines to open in excel ######



Time [s],volts [V]

0.0,0.14

0.002,0.212

0.004,0.196

0.006,0.192

0.008,0.192

0.01,0.192

0.012,0.192

0.014,0.056

0.016,0.052000000000000005

0.018000000000000002,0.052000000000000005

0.02,0.056

0.022,0.056

0.024,0.056

0.026000000000000002,0.052000000000000005

0.028,0.052000000000000005

0.03,0.052000000000000005

0.032,0.052000000000000005

0.034,0.052000000000000005

0.036000000000000004,0.056

0.038,0.056

0.04,0.052000000000000005

0.042,0.056

0.044,0.056

0.046,0.052000000000000005

0.048,0.052000000000000005

0.05,0.06

0.052000000000000005,0.052000000000000005

0.054,0.056

0.056,0.056

0.058,0.052000000000000005

0.06,0.056

0.062,0.052000000000000005

0.064,0.052000000000000005

0.066,0.056

0.068,0.056

0.07,0.056

0.07200000000000001,0.056

0.074,0.056

0.076,0.06

0.078,0.056

0.08,0.056

0.082,0.06

0.084,0.056

0.08600000000000001,0.06

0.088,0.06

0.09,0.056

0.092,0.056

0.094,0.056

0.096,0.056

0.098,0.056

0.1,0.056

0.10200000000000001,0.06

0.10400000000000001,0.06

0.106,0.052000000000000005

0.108,0.056

0.11,0.056

0.112,0.056

0.114,0.056

0.116,0.052000000000000005

0.11800000000000001,0.056

0.12,0.056

0.122,0.06

0.124,0.056

0.126,0.056

0.128,0.056

0.13,0.056

0.132,0.06

0.134,0.06

0.136,0.056

0.138,0.056

0.14,0.056

0.14200000000000002,0.056

0.14400000000000002,0.056

0.146,0.056

0.148,0.06

0.15,0.06

0.152,0.06

0.154,0.06

0.156,0.06

0.158,0.06

0.16,0.06

0.162,0.056

0.164,0.06

0.166,0.056

0.168,0.06

0.17,0.056

0.17200000000000001,0.06

0.17400000000000002,0.056

0.176,0.056

0.178,0.06

0.18,0.064

0.182,0.056

0.184,0.056

0.186,0.056

0.188,0.056

0.19,0.06

0.192,0.064

0.194,0.06

0.196,0.056

0.198,0.064

0.2,0.06

0.202,0.06

0.20400000000000001,0.056

0.20600000000000002,0.056

0.20800000000000002,0.06

0.21,0.06

0.212,0.06

0.214,0.056

0.216,0.056

0.218,0.06

0.22,0.06

0.222,0.06

0.224,0.064

0.226,0.06

0.228,0.06

0.23,0.064

0.232,0.06

0.234,0.064

0.23600000000000002,0.06

0.23800000000000002,0.056

0.24,0.06

0.242,0.056

0.244,0.06

0.246,0.06

0.248,0.06

0.25,0.056

0.252,0.06

0.254,0.06

0.256,0.056

0.258,0.06

0.26,0.064

0.262,0.06

0.264,0.056

0.266,0.06

0.268,0.064

0.27,0.064

0.272,0.064

0.274,0.06

0.276,0.06

0.278,0.064

0.28,0.06

0.28200000000000003,0.06

0.28400000000000003,0.06

0.28600000000000003,0.064

0.28800000000000003,0.06

0.29,0.06

0.292,0.056

0.294,0.056

0.296,0.06

0.298,0.06

0.3,0.064

0.302,0.06

0.304,0.06

0.306,0.068

0.308,0.064

0.31,0.06

0.312,0.064

0.314,0.064

0.316,0.06

0.318,0.064

0.32,0.064

0.322,0.064

0.324,0.064

0.326,0.064

0.328,0.064

0.33,0.068

0.332,0.06

0.334,0.064

0.336,0.064

0.338,0.06

0.34,0.068

0.342,0.064

0.34400000000000003,0.068

0.34600000000000003,0.06

0.34800000000000003,0.068

0.35000000000000003,0.068

0.352,0.064

0.354,0.06

0.356,0.06

0.358,0.064

0.36,0.064

0.362,0.064

0.364,0.064

0.366,0.064

0.368,0.064

0.37,0.064

0.372,0.06

0.374,0.07200000000000001

0.376,0.068

0.378,0.064

0.38,0.064

0.382,0.064

0.384,0.064

0.386,0.064

0.388,0.068

0.39,0.064

0.392,0.068

0.394,0.064

0.396,0.064

0.398,0.068

0.4,0.064

0.402,0.064

0.404,0.064

0.406,0.07200000000000001

0.40800000000000003,0.064

0.41000000000000003,0.068

0.41200000000000003,0.06

0.41400000000000003,0.068

0.41600000000000004,0.064

0.418,0.064

0.42,0.068

0.422,0.068

0.424,0.068

0.426,0.068

0.428,0.068

0.43,0.068

0.432,0.068

0.434,0.068

0.436,0.064

0.438,0.068

0.44,0.064

0.442,0.064

0.444,0.064

0.446,0.068

0.448,0.064

0.45,0.064

0.452,0.068

0.454,0.06

0.456,0.064

0.458,0.068

0.46,0.068

0.462,0.064

0.464,0.068

0.466,0.064

0.468,0.07200000000000001

0.47000000000000003,0.07200000000000001

0.47200000000000003,0.068

0.47400000000000003,0.068

0.47600000000000003,0.064

0.47800000000000004,0.064

0.48,0.064

0.482,0.068

0.484,0.068

0.486,0.068

0.488,0.068

0.49,0.064

0.492,0.068

0.494,0.068

0.496,0.068

0.498,0.068

0.5,0.068

0.502,0.064

0.504,0.068

0.506,0.068

0.508,0.068

0.51,0.068

0.512,0.068

0.514,0.068

0.516,0.07200000000000001

0.518,0.07200000000000001

0.52,0.068

0.522,0.068

0.524,0.068

0.526,0.068

0.528,0.068

0.53,0.068

0.532,0.064

0.534,0.064

0.536,0.064

0.538,0.068

0.54,0.068

0.542,0.068

0.544,0.07200000000000001

0.546,0.068

0.548,0.068

0.55,0.068

0.552,0.07200000000000001

0.554,0.068

0.556,0.07200000000000001

0.558,0.068

0.56,0.07200000000000001

0.562,0.07200000000000001

0.5640000000000001,0.068

0.5660000000000001,0.07200000000000001

0.5680000000000001,0.068

0.5700000000000001,0.068

0.5720000000000001,0.068

0.5740000000000001,0.07200000000000001

0.5760000000000001,0.068

0.578,0.068

0.58,0.064

0.582,0.07200000000000001

0.584,0.068

0.586,0.07200000000000001

0.588,0.068

0.59,0.068

0.592,0.07200000000000001

0.594,0.068

0.596,0.068

0.598,0.07200000000000001

0.6,0.068

0.602,0.068

0.604,0.068

0.606,0.068

0.608,0.068

0.61,0.07200000000000001

0.612,0.07200000000000001

0.614,0.07200000000000001

0.616,0.07200000000000001

0.618,0.07200000000000001

0.62,0.068

0.622,0.07200000000000001

0.624,0.07200000000000001

0.626,0.07200000000000001

0.628,0.068

0.63,0.07200000000000001

0.632,0.07200000000000001

0.634,0.064

0.636,0.068

0.638,0.07200000000000001

0.64,0.068

0.642,0.07200000000000001

0.644,0.07200000000000001

0.646,0.07200000000000001

0.648,0.07200000000000001

0.65,0.07200000000000001

0.652,0.068

0.654,0.07200000000000001

0.656,0.07200000000000001

0.658,0.076

0.66,0.07200000000000001

0.662,0.07200000000000001

0.664,0.07200000000000001

0.666,0.07200000000000001

0.668,0.07200000000000001

0.67,0.07200000000000001

0.672,0.07200000000000001

0.674,0.07200000000000001

0.676,0.076

0.678,0.07200000000000001

0.68,0.07200000000000001

0.682,0.064

0.684,0.07200000000000001

0.686,0.07200000000000001

0.6880000000000001,0.068

0.6900000000000001,0.07200000000000001

0.6920000000000001,0.07200000000000001

0.6940000000000001,0.07200000000000001

0.6960000000000001,0.07200000000000001

0.6980000000000001,0.07200000000000001

0.7000000000000001,0.076

0.7020000000000001,0.07200000000000001

0.704,0.07200000000000001

0.706,0.07200000000000001

0.708,0.07200000000000001

0.71,0.07200000000000001

0.712,0.07200000000000001

0.714,0.07200000000000001

0.716,0.07200000000000001

0.718,0.076

0.72,0.07200000000000001

0.722,0.076

0.724,0.07200000000000001

0.726,0.07200000000000001

0.728,0.07200000000000001

0.73,0.076

0.732,0.07200000000000001

0.734,0.076

0.736,0.076

0.738,0.07200000000000001

0.74,0.07200000000000001

0.742,0.07200000000000001

0.744,0.07200000000000001

0.746,0.07200000000000001

0.748,0.07200000000000001

0.75,0.07200000000000001

0.752,0.07200000000000001

0.754,0.076

0.756,0.068

0.758,0.07200000000000001

0.76,0.07200000000000001

0.762,0.07200000000000001

0.764,0.07200000000000001

0.766,0.076

0.768,0.068

0.77,0.07200000000000001

0.772,0.07200000000000001

0.774,0.076

0.776,0.07200000000000001

0.778,0.07200000000000001

0.78,0.07200000000000001

0.782,0.076

0.784,0.07200000000000001

0.786,0.07200000000000001

0.788,0.07200000000000001

0.79,0.07200000000000001

0.792,0.07200000000000001

0.794,0.07200000000000001

0.796,0.076

0.798,0.068

0.8,0.076

0.802,0.07200000000000001

0.804,0.07200000000000001

0.806,0.07200000000000001

0.808,0.068

0.81,0.076

0.812,0.07200000000000001

0.8140000000000001,0.07200000000000001

0.8160000000000001,0.076

0.8180000000000001,0.07200000000000001

0.8200000000000001,0.07200000000000001

0.8220000000000001,0.07200000000000001

0.8240000000000001,0.076

0.8260000000000001,0.07200000000000001

0.8280000000000001,0.07200000000000001

0.8300000000000001,0.07200000000000001

0.8320000000000001,0.07200000000000001

0.834,0.07200000000000001

0.836,0.07200000000000001

0.838,0.076

0.84,0.07200000000000001

0.842,0.07200000000000001

0.844,0.07200000000000001

0.846,0.076

0.848,0.076

0.85,0.07200000000000001

0.852,0.07200000000000001

0.854,0.07200000000000001

0.856,0.076

0.858,0.076

0.86,0.07200000000000001

0.862,0.07200000000000001

0.864,0.076

0.866,0.07200000000000001

0.868,0.076

0.87,0.07200000000000001

0.872,0.076

0.874,0.076

0.876,0.07200000000000001

0.878,0.07200000000000001

0.88,0.07200000000000001

0.882,0.07200000000000001

0.884,0.07200000000000001

0.886,0.07200000000000001

0.888,0.068

0.89,0.068

0.892,0.07200000000000001

0.894,0.07200000000000001

0.896,0.076

0.898,0.076

0.9,0.076

0.902,0.076

0.904,0.076

0.906,0.076

0.908,0.07200000000000001

0.91,0.07200000000000001

0.912,0.07200000000000001

0.914,0.08

0.916,0.076

0.918,0.08

0.92,0.076

0.922,0.07200000000000001

0.924,0.07200000000000001

0.926,0.076

0.928,0.07200000000000001

0.93,0.076

0.932,0.08

0.934,0.076

0.936,0.076

0.9380000000000001,0.07200000000000001

0.9400000000000001,0.07200000000000001

0.9420000000000001,0.076

0.9440000000000001,0.076

0.9460000000000001,0.076

0.9480000000000001,0.076

0.9500000000000001,0.076

0.9520000000000001,0.076

0.9540000000000001,0.07200000000000001

0.9560000000000001,0.07200000000000001

0.9580000000000001,0.076

0.96,0.076

0.962,0.076

0.964,0.07200000000000001

0.966,0.076

0.968,0.076

0.97,0.08

0.972,0.076

0.974,0.07200000000000001

0.976,0.076

0.978,0.076

0.98,0.076

0.982,0.076

0.984,0.08

0.986,0.076

0.988,0.08

0.99,0.08

0.992,0.076

0.994,0.076

0.996,0.07200000000000001

0.998,0.076

1.0,0.07200000000000001

1.002,0.076

1.004,0.076

1.006,0.076

1.008,0.07200000000000001

1.01,0.076

1.012,0.076

1.014,0.07200000000000001

1.016,0.076

1.018,0.07200000000000001

1.02,0.076

1.022,0.076

1.024,0.076

1.026,0.08

1.028,0.076

1.03,0.07200000000000001

1.032,0.07200000000000001

1.034,0.08

1.036,0.076

1.038,0.076

1.04,0.07200000000000001

1.042,0.07200000000000001

1.044,0.08

1.046,0.076

1.048,0.08

1.05,0.07200000000000001

1.052,0.076

1.054,0.076

1.056,0.076

1.058,0.08

1.06,0.076

1.062,0.076

1.064,0.076

1.066,0.08

1.068,0.08

1.07,0.076

1.072,0.08

1.074,0.07200000000000001

1.076,0.076

1.078,0.076

1.08,0.07200000000000001

1.082,0.07200000000000001

1.084,0.08

1.086,0.076

1.088,0.076

1.09,0.076

1.092,0.07200000000000001

1.094,0.08

1.096,0.08

1.098,0.076

1.1,0.07200000000000001

1.102,0.07200000000000001

1.104,0.076

1.106,0.076

1.108,0.076

1.11,0.076

1.112,0.076

1.114,0.08

1.116,0.076

1.118,0.076

1.12,0.08

1.122,0.076

1.124,0.076

1.1260000000000001,0.076

1.1280000000000001,0.08

1.1300000000000001,0.076

1.1320000000000001,0.076

1.1340000000000001,0.08

1.1360000000000001,0.076

1.1380000000000001,0.08

1.1400000000000001,0.076

1.1420000000000001,0.076

1.1440000000000001,0.076

1.1460000000000001,0.076

1.1480000000000001,0.076

1.1500000000000001,0.08

1.1520000000000001,0.07200000000000001

1.154,0.076

1.156,0.076

1.158,0.076

1.16,0.08

1.162,0.076

1.164,0.07200000000000001

1.166,0.076

1.168,0.076

1.17,0.076

1.172,0.07200000000000001

1.174,0.076

1.176,0.08

1.178,0.076

1.18,0.08

1.182,0.08

1.184,0.07200000000000001

1.186,0.076

1.188,0.08

1.19,0.076

1.192,0.076

1.194,0.07200000000000001

1.196,0.07200000000000001

1.198,0.076

1.2,0.076

1.202,0.076

1.204,0.07200000000000001

1.206,0.076

1.208,0.076

1.21,0.07200000000000001

1.212,0.08

1.214,0.08

1.216,0.076

1.218,0.076

1.22,0.076

1.222,0.076

1.224,0.076

1.226,0.076

1.228,0.076

1.23,0.07200000000000001

1.232,0.076

1.234,0.076

1.236,0.076

1.238,0.076

1.24,0.076

1.242,0.076

1.244,0.076

1.246,0.08

1.248,0.076

1.25,0.076

1.252,0.07200000000000001

1.254,0.07200000000000001

1.256,0.076

1.258,0.076

1.26,0.076

1.262,0.076

1.264,0.076

1.266,0.076

1.268,0.076

1.27,0.08

1.272,0.076

1.274,0.076

1.276,0.076

1.278,0.076

1.28,0.08

1.282,0.08

1.284,0.076

1.286,0.08

1.288,0.076

1.29,0.076

1.292,0.08

1.294,0.08

1.296,0.076

1.298,0.07200000000000001

1.3,0.076

1.302,0.076

1.304,0.076

1.306,0.08

1.308,0.076

1.31,0.076

1.312,0.076

1.314,0.076

1.316,0.076

1.318,0.076

1.32,0.076

1.322,0.076

1.324,0.08

1.326,0.076

1.328,0.076

1.33,0.08

1.332,0.076

1.334,0.076

1.336,0.076

1.338,0.076

1.34,0.076

1.342,0.07200000000000001

1.344,0.08

1.346,0.07200000000000001

1.348,0.076

1.35,0.076

1.352,0.076

1.354,0.07200000000000001

1.356,0.076

1.358,0.076

1.36,0.08

1.362,0.08

1.364,0.08

1.366,0.08

1.368,0.076

1.37,0.076

1.372,0.084

1.374,0.08

1.3760000000000001,0.076

1.3780000000000001,0.076

1.3800000000000001,0.07200000000000001

1.3820000000000001,0.076

1.3840000000000001,0.07200000000000001

1.3860000000000001,0.076

1.3880000000000001,0.076

1.3900000000000001,0.076

1.3920000000000001,0.07200000000000001

1.3940000000000001,0.076

1.3960000000000001,0.076

1.3980000000000001,0.076

1.4000000000000001,0.07200000000000001

1.4020000000000001,0.076

1.4040000000000001,0.07200000000000001

1.4060000000000001,0.076

1.408,0.076

1.41,0.076

1.412,0.076

1.414,0.076

1.416,0.076

1.418,0.07200000000000001

1.42,0.07200000000000001

1.422,0.076

1.424,0.076

1.426,0.076

1.428,0.07200000000000001

1.43,0.076

1.432,0.076

1.434,0.076

1.436,0.07200000000000001

1.438,0.076

1.44,0.076

1.442,0.076

1.444,0.076

1.446,0.076

1.448,0.08

1.45,0.076

1.452,0.076

1.454,0.076

1.456,0.076

1.458,0.076

1.46,0.076

1.462,0.076

1.464,0.076

1.466,0.07200000000000001

1.468,0.076

1.47,0.07200000000000001

1.472,0.076

1.474,0.076

1.476,0.076

1.478,0.076

1.48,0.07200000000000001

1.482,0.076

1.484,0.076

1.486,0.076

1.488,0.076

1.49,0.076

1.492,0.076

1.494,0.076

1.496,0.076

1.498,0.08

1.5,0.076

1.502,0.07200000000000001

1.504,0.076

1.506,0.07200000000000001

1.508,0.07200000000000001

1.51,0.076

1.512,0.07200000000000001

1.514,0.076

1.516,0.076

1.518,0.08

1.52,0.076

1.522,0.076

1.524,0.07200000000000001

1.526,0.076

1.528,0.076

1.53,0.076

1.532,0.08

1.534,0.08

1.536,0.076

1.538,0.07200000000000001

1.54,0.076

1.542,0.07200000000000001

1.544,0.07200000000000001

1.546,0.076

1.548,0.07200000000000001

1.55,0.076

1.552,0.076

1.554,0.076

1.556,0.08

1.558,0.08

1.56,0.076

1.562,0.07200000000000001

1.564,0.076

1.566,0.076

1.568,0.07200000000000001

1.57,0.076

1.572,0.07200000000000001

1.574,0.07200000000000001

1.576,0.08

1.578,0.076

1.58,0.07200000000000001

1.582,0.076

1.584,0.076

1.586,0.076

1.588,0.076

1.59,0.076

1.592,0.07200000000000001

1.594,0.076

1.596,0.07200000000000001

1.598,0.07200000000000001

1.6,0.076

1.602,0.076

1.604,0.076

1.606,0.076

1.608,0.07200000000000001

1.61,0.07200000000000001

1.612,0.076

1.614,0.076

1.616,0.076

1.618,0.07200000000000001

1.62,0.07200000000000001

1.622,0.076

1.624,0.07200000000000001

1.6260000000000001,0.07200000000000001

1.6280000000000001,0.07200000000000001

1.6300000000000001,0.07200000000000001

1.6320000000000001,0.07200000000000001

1.6340000000000001,0.08

1.6360000000000001,0.07200000000000001

1.6380000000000001,0.07200000000000001

1.6400000000000001,0.076

1.6420000000000001,0.076

1.6440000000000001,0.07200000000000001

1.6460000000000001,0.076

1.6480000000000001,0.076

1.6500000000000001,0.07200000000000001

1.6520000000000001,0.08

1.6540000000000001,0.076

1.6560000000000001,0.076

1.6580000000000001,0.076

1.6600000000000001,0.07200000000000001

1.6620000000000001,0.07200000000000001

1.6640000000000001,0.076

1.666,0.076

1.668,0.076

1.67,0.076

1.672,0.07200000000000001

1.674,0.07200000000000001

1.676,0.076

1.678,0.07200000000000001

1.68,0.076

1.682,0.07200000000000001

1.684,0.08

1.686,0.07200000000000001

1.688,0.07200000000000001

1.69,0.07200000000000001

1.692,0.07200000000000001

1.694,0.07200000000000001

1.696,0.068

1.698,0.076

1.7,0.07200000000000001

1.702,0.076

1.704,0.07200000000000001

1.706,0.07200000000000001

1.708,0.076

1.71,0.076

1.712,0.076

1.714,0.076

1.716,0.07200000000000001

1.718,0.07200000000000001

1.72,0.076

1.722,0.07200000000000001

1.724,0.07200000000000001

1.726,0.07200000000000001

1.728,0.07200000000000001

1.73,0.076

1.732,0.07200000000000001

1.734,0.07200000000000001

1.736,0.07200000000000001

1.738,0.076

1.74,0.076

1.742,0.07200000000000001

1.744,0.076

1.746,0.076

1.748,0.076

1.75,0.076

1.752,0.06

1.754,0.068

1.756,0.064

1.758,0.08

1.76,0.064

1.762,0.07200000000000001

1.764,0.08

1.766,0.064

1.768,0.064

1.77,0.08

1.772,0.08

1.774,0.076

1.776,0.064

1.778,0.076

1.78,0.068

1.782,0.064

1.784,0.06

1.786,0.064

1.788,0.07200000000000001

1.79,0.08

1.792,0.064

1.794,0.08

1.796,0.08

1.798,0.07200000000000001

1.8,0.064

1.802,0.068

1.804,0.068

1.806,0.08

1.808,0.08

1.81,0.07200000000000001

1.812,0.06

1.814,0.064

1.816,0.076

1.818,0.076

1.82,0.068

1.822,0.07200000000000001

1.824,0.076

1.826,0.064

1.828,0.084

1.83,0.064

1.832,0.08

1.834,0.07200000000000001

1.836,0.06

1.838,0.07200000000000001

1.84,0.08

1.842,0.064

1.844,0.076

1.846,0.06

1.848,0.068

1.85,0.064

1.852,0.076

1.854,0.08

1.856,0.08

1.858,0.08

1.86,0.076

1.862,0.076

1.864,0.068

1.866,0.064

1.868,0.064

1.87,0.068

1.872,0.08

1.874,0.076

1.8760000000000001,0.06

1.8780000000000001,0.07200000000000001

1.8800000000000001,0.08

1.8820000000000001,0.068

1.8840000000000001,0.07200000000000001

1.8860000000000001,0.076

1.8880000000000001,0.06

1.8900000000000001,0.08

1.8920000000000001,0.064

1.8940000000000001,0.07200000000000001

1.8960000000000001,0.068

1.8980000000000001,0.08

1.9000000000000001,0.068

1.9020000000000001,0.08

1.9040000000000001,0.064

1.9060000000000001,0.08

1.9080000000000001,0.064

1.9100000000000001,0.076

1.9120000000000001,0.076

1.9140000000000001,0.064

1.9160000000000001,0.08

1.9180000000000001,0.068

1.92,0.064

1.922,0.068

1.924,0.068

1.926,0.08

1.928,0.08

1.93,0.068

1.932,0.08

1.934,0.068

1.936,0.06

1.938,0.076

1.94,0.064

1.942,0.064

1.944,0.076

1.946,0.064

1.948,0.07200000000000001

1.95,0.076

1.952,0.07200000000000001

1.954,0.064

1.956,0.08

1.958,0.08

1.96,0.06

1.962,0.068

1.964,0.07200000000000001

1.966,0.076

1.968,0.06

1.97,0.07200000000000001

1.972,0.068

1.974,0.08

1.976,0.07200000000000001

1.978,0.064

1.98,0.076

1.982,0.08

1.984,0.064

1.986,0.06

1.988,0.064

1.99,0.076

1.992,0.06

1.994,0.064

1.996,0.076

1.998,0.076

2.0,0.076

2.0020000000000002,0.06

2.004,0.064

2.0060000000000002,0.076

2.008,0.07200000000000001

2.0100000000000002,0.068

2.012,0.06

2.0140000000000002,0.07200000000000001

2.016,0.076

2.0180000000000002,0.076

2.02,0.06

2.0220000000000002,0.064

2.024,0.07200000000000001

2.0260000000000002,0.076

2.028,0.068

2.0300000000000002,0.06

2.032,0.064

2.0340000000000003,0.076

2.036,0.07200000000000001

2.0380000000000003,0.068

2.04,0.06

2.0420000000000003,0.064

2.044,0.076

2.0460000000000003,0.07200000000000001

2.048,0.064

2.05,0.06

2.052,0.07200000000000001

2.054,0.076

2.056,0.07200000000000001

2.058,0.06

2.06,0.06

2.062,0.068

2.064,0.076

2.066,0.068

2.068,0.06

2.07,0.06

2.072,0.07200000000000001

2.074,0.07200000000000001

2.076,0.07200000000000001

2.078,0.056

2.08,0.056

2.082,0.068

2.084,0.076

2.086,0.07200000000000001

2.088,0.06

2.09,0.06

2.092,0.068

2.094,0.07200000000000001

2.096,0.07200000000000001

2.098,0.06

2.1,0.06

2.102,0.068

2.104,0.07200000000000001

2.106,0.068

2.108,0.064

2.11,0.056

2.112,0.07200000000000001

2.114,0.07200000000000001

2.116,0.07200000000000001

2.118,0.06

2.12,0.056

2.122,0.064

2.124,0.07200000000000001

2.126,0.07200000000000001

2.128,0.064

2.13,0.056

2.132,0.06

2.134,0.07200000000000001

2.136,0.076

2.138,0.064

2.14,0.056

2.142,0.056

2.144,0.06

2.146,0.07200000000000001

2.148,0.064

2.15,0.056

2.152,0.06

2.154,0.068

2.156,0.076

2.158,0.068

2.16,0.06

2.162,0.056

2.164,0.07200000000000001

2.166,0.076

2.168,0.068

2.17,0.064

2.172,0.06

2.174,0.064

2.176,0.07200000000000001

2.178,0.06

2.18,0.06

2.182,0.056

2.184,0.06

2.186,0.068

2.188,0.07200000000000001

2.19,0.052000000000000005

2.192,0.056

2.194,0.06

2.196,0.068

2.198,0.07200000000000001

2.2,0.06

2.202,0.06

2.204,0.056

2.206,0.064

2.208,0.07200000000000001

2.21,0.07200000000000001

2.212,0.056

2.214,0.056

2.216,0.064

2.218,0.068

2.22,0.068

2.222,0.06

2.224,0.056

2.226,0.056

2.228,0.068

2.23,0.068

2.232,0.06

2.234,0.06

2.236,0.056

2.238,0.064

2.24,0.07200000000000001

2.242,0.068

2.244,0.056

2.246,0.056

2.248,0.06

2.25,0.064

2.2520000000000002,0.07200000000000001

2.254,0.06

2.2560000000000002,0.052000000000000005

2.258,0.052000000000000005

2.2600000000000002,0.064

2.262,0.07200000000000001

2.2640000000000002,0.064

2.266,0.06

2.2680000000000002,0.056

2.27,0.06

2.2720000000000002,0.068

2.274,0.068

2.2760000000000002,0.06

2.278,0.052000000000000005

2.2800000000000002,0.056

2.282,0.064

2.2840000000000003,0.07200000000000001

2.286,0.06

2.2880000000000003,0.056

2.29,0.056

2.2920000000000003,0.064

2.294,0.07200000000000001

2.2960000000000003,0.06

2.298,0.056

2.3000000000000003,0.056

2.302,0.064

2.3040000000000003,0.068

2.306,0.07200000000000001

2.308,0.06

2.31,0.056

2.312,0.06

2.314,0.068

2.316,0.07200000000000001

2.318,0.064

2.32,0.052000000000000005

2.322,0.064

2.324,0.06

2.326,0.064

2.328,0.064

2.33,0.052000000000000005

2.332,0.048

2.334,0.06

2.336,0.068

2.338,0.068

2.34,0.06

2.342,0.052000000000000005

2.344,0.06

2.346,0.064

2.348,0.07200000000000001

2.35,0.06

2.352,0.056

2.354,0.052000000000000005

2.356,0.06

2.358,0.064

2.36,0.064

2.362,0.052000000000000005

2.364,0.048

2.366,0.056

2.368,0.064

2.37,0.064

2.372,0.052000000000000005

2.374,0.052000000000000005

2.376,0.056

2.378,0.068

2.38,0.068

2.382,0.056

2.384,0.052000000000000005

2.386,0.052000000000000005

2.388,0.064

2.39,0.068

2.392,0.064

2.394,0.056

2.396,0.056

2.398,0.056

2.4,0.064

2.402,0.06

2.404,0.052000000000000005

2.406,0.052000000000000005

2.408,0.056

2.41,0.068

2.412,0.064

2.414,0.064

2.416,0.048

2.418,0.048

2.42,0.06

2.422,0.064

2.424,0.056

2.426,0.052000000000000005

2.428,0.056

2.43,0.056

2.432,0.068

2.434,0.06

2.436,0.052000000000000005

2.438,0.048

2.44,0.052000000000000005

2.442,0.064

2.444,0.064

2.446,0.06

2.448,0.048

2.45,0.056

2.452,0.064

2.454,0.056

2.456,0.06

2.458,0.052000000000000005

2.46,0.048

2.462,0.06

2.464,0.064

2.466,0.06

2.468,0.052000000000000005

2.47,0.048

2.472,0.056

2.474,0.06

2.476,0.06

2.478,0.06

2.48,0.048

2.482,0.048

2.484,0.06

2.486,0.064

2.488,0.064

2.49,0.052000000000000005

2.492,0.052000000000000005

2.494,0.06

2.496,0.064

2.498,0.064

2.5,0.056

2.5020000000000002,0.048

2.504,0.056

2.5060000000000002,0.064

2.508,0.06

2.5100000000000002,0.052000000000000005

2.512,0.048

2.5140000000000002,0.052000000000000005

2.516,0.064

2.5180000000000002,0.06

2.52,0.052000000000000005

2.5220000000000002,0.052000000000000005

2.524,0.052000000000000005

2.5260000000000002,0.056

2.528,0.06

2.5300000000000002,0.056

2.532,0.052000000000000005

2.5340000000000003,0.052000000000000005

2.536,0.056

2.5380000000000003,0.06

2.54,0.056

2.5420000000000003,0.048

2.544,0.052000000000000005

2.5460000000000003,0.06

2.548,0.06

2.5500000000000003,0.06

2.552,0.052000000000000005

2.5540000000000003,0.048

2.556,0.048

2.5580000000000003,0.052000000000000005

2.56,0.06

2.562,0.056

2.564,0.048

2.566,0.052000000000000005

2.568,0.056

2.57,0.064

2.572,0.052000000000000005

2.574,0.048

2.576,0.052000000000000005

2.578,0.056

2.58,0.056

2.582,0.056

2.584,0.052000000000000005

2.586,0.056

2.588,0.056

2.59,0.056

2.592,0.06

2.594,0.052000000000000005

2.596,0.044

2.598,0.048

2.6,0.064

2.602,0.06

2.604,0.056

2.606,0.044

2.608,0.052000000000000005

2.61,0.06

2.612,0.064

2.614,0.048

2.616,0.044

2.618,0.056

2.62,0.06

2.622,0.052000000000000005

2.624,0.048

2.626,0.048

2.628,0.048

2.63,0.056

2.632,0.056

2.634,0.052000000000000005

2.636,0.044

2.638,0.048

2.64,0.052000000000000005

2.642,0.056

2.644,0.06

2.646,0.052000000000000005

2.648,0.044

2.65,0.06

2.652,0.056

2.654,0.052000000000000005

2.656,0.048

2.658,0.048

2.66,0.044

2.662,0.052000000000000005

2.664,0.052000000000000005

2.666,0.052000000000000005

2.668,0.048

2.67,0.044

2.672,0.052000000000000005

2.674,0.052000000000000005

2.676,0.052000000000000005

2.678,0.056

2.68,0.052000000000000005

2.682,0.052000000000000005

2.684,0.052000000000000005

2.686,0.052000000000000005

2.688,0.052000000000000005

2.69,0.052000000000000005

2.692,0.052000000000000005

2.694,0.052000000000000005

2.696,0.048

2.698,0.048

2.7,0.052000000000000005

2.702,0.048

2.704,0.052000000000000005

2.706,0.048

2.708,0.048

2.71,0.052000000000000005

2.712,0.052000000000000005

2.714,0.048

2.716,0.048

2.718,0.052000000000000005

2.72,0.052000000000000005

2.722,0.052000000000000005

2.724,0.048

2.726,0.048

2.728,0.048

2.73,0.052000000000000005

2.732,0.052000000000000005

2.734,0.052000000000000005

2.736,0.048

2.738,0.052000000000000005

2.74,0.048

2.742,0.048

2.744,0.052000000000000005

2.746,0.052000000000000005

2.748,0.048

2.75,0.048

2.7520000000000002,0.048

2.754,0.048

2.7560000000000002,0.048

2.758,0.048

2.7600000000000002,0.048

2.762,0.048

2.7640000000000002,0.048

2.766,0.048

2.7680000000000002,0.048

2.77,0.048

2.7720000000000002,0.048

2.774,0.048

2.7760000000000002,0.048

2.778,0.044

2.7800000000000002,0.048

2.782,0.052000000000000005

2.7840000000000003,0.044

2.786,0.048

2.7880000000000003,0.048

2.79,0.044

2.7920000000000003,0.048

2.794,0.044

2.7960000000000003,0.048

2.798,0.048

2.8000000000000003,0.044

2.802,0.044

2.8040000000000003,0.048

2.806,0.044

2.8080000000000003,0.048

2.81,0.052000000000000005

2.8120000000000003,0.048

2.814,0.044

2.816,0.044

2.818,0.052000000000000005

2.82,0.048

2.822,0.048

2.824,0.044

2.826,0.048

2.828,0.048

2.83,0.044

2.832,0.044

2.834,0.048

2.836,0.044

2.838,0.044

2.84,0.048

2.842,0.052000000000000005

2.844,0.044

2.846,0.048

2.848,0.044

2.85,0.044

2.852,0.044

2.854,0.048

2.856,0.044

2.858,0.048

2.86,0.048

2.862,0.048

2.864,0.048

2.866,0.044

2.868,0.044

2.87,0.048

2.872,0.044

2.874,0.04

2.876,0.044

2.878,0.048

2.88,0.044

2.882,0.044

2.884,0.044

2.886,0.044

2.888,0.044

2.89,0.048

2.892,0.048

2.894,0.044

2.896,0.048

2.898,0.044

2.9,0.044

2.902,0.044

2.904,0.052000000000000005

2.906,0.044

2.908,0.04

2.91,0.048

2.912,0.044

2.914,0.048

2.916,0.044

2.918,0.04

2.92,0.04

2.922,0.044

2.924,0.04

2.926,0.04

2.928,0.04

2.93,0.044

2.932,0.044

2.934,0.044

2.936,0.04

2.938,0.048

2.94,0.044

2.942,0.044

2.944,0.044

2.946,0.04

2.948,0.04

2.95,0.044

2.952,0.04

2.954,0.04

2.956,0.04

2.958,0.04

2.96,0.036000000000000004

2.962,0.044

2.964,0.044

2.966,0.04

2.968,0.036000000000000004

2.97,0.04

2.972,0.04

2.974,0.044

2.976,0.036000000000000004

2.978,0.04

2.98,0.04

2.982,0.036000000000000004

2.984,0.04

2.986,0.04

2.988,0.04

2.99,0.04

2.992,0.036000000000000004

2.994,0.036000000000000004

2.996,0.04

2.998,0.044

3.0,0.036000000000000004

3.0020000000000002,0.04

3.004,0.04

3.0060000000000002,0.04

3.008,0.044

3.0100000000000002,0.04

3.012,0.032

3.0140000000000002,0.036000000000000004

3.016,0.04

3.0180000000000002,0.04

3.02,0.04

3.0220000000000002,0.04

3.024,0.036000000000000004

3.0260000000000002,0.04

3.028,0.036000000000000004

3.0300000000000002,0.04

3.032,0.044

3.0340000000000003,0.036000000000000004

3.036,0.036000000000000004

3.0380000000000003,0.044

3.04,0.04

3.0420000000000003,0.04

3.044,0.04

3.0460000000000003,0.036000000000000004

3.048,0.036000000000000004

3.0500000000000003,0.04

3.052,0.036000000000000004

3.0540000000000003,0.04

3.056,0.036000000000000004

3.0580000000000003,0.036000000000000004

3.06,0.036000000000000004

3.0620000000000003,0.036000000000000004

3.064,0.036000000000000004

3.0660000000000003,0.032

3.068,0.036000000000000004

3.0700000000000003,0.04

3.072,0.036000000000000004

3.074,0.036000000000000004

3.076,0.036000000000000004

3.078,0.036000000000000004

3.08,0.032

3.082,0.036000000000000004

3.084,0.036000000000000004

3.086,0.032

3.088,0.036000000000000004

3.09,0.036000000000000004

3.092,0.04

3.094,0.04

3.096,0.036000000000000004

3.098,0.036000000000000004

3.1,0.032

3.102,0.032

3.104,0.036000000000000004

3.106,0.04

3.108,0.036000000000000004

3.11,0.036000000000000004

3.112,0.036000000000000004

3.114,0.036000000000000004

3.116,0.036000000000000004

3.118,0.036000000000000004

3.12,0.032

3.122,0.036000000000000004

3.124,0.036000000000000004

3.126,0.036000000000000004

3.128,0.036000000000000004

3.13,0.036000000000000004

3.132,0.036000000000000004

3.134,0.032

3.136,0.032

3.138,0.036000000000000004

3.14,0.032

3.142,0.036000000000000004

3.144,0.032

3.146,0.036000000000000004

3.148,0.032

3.15,0.036000000000000004

3.152,0.032

3.154,0.032

3.156,0.036000000000000004

3.158,0.028

3.16,0.036000000000000004

3.162,0.032

3.164,0.036000000000000004

3.166,0.032

3.168,0.036000000000000004

3.17,0.032

3.172,0.032

3.174,0.032

3.176,0.036000000000000004

3.178,0.032

3.18,0.032

3.182,0.032

3.184,0.028

3.186,0.032

3.188,0.032

3.19,0.032

3.192,0.036000000000000004

3.194,0.032

3.196,0.032

3.198,0.032

3.2,0.036000000000000004

3.202,0.032

3.204,0.036000000000000004

3.206,0.032

3.208,0.032

3.21,0.036000000000000004

3.212,0.028

3.214,0.036000000000000004

3.216,0.032

3.218,0.032

3.22,0.028

3.222,0.032

3.224,0.032

3.226,0.032

3.228,0.032

3.23,0.032

3.232,0.032

3.234,0.028

3.236,0.032

3.238,0.032

3.24,0.032

3.242,0.032

3.244,0.032

3.246,0.032

3.248,0.028

3.25,0.028

3.2520000000000002,0.028

3.254,0.032

3.2560000000000002,0.032

3.258,0.032

3.2600000000000002,0.032

3.262,0.028

3.2640000000000002,0.028

3.266,0.028

3.2680000000000002,0.028

3.27,0.032

3.2720000000000002,0.032

3.274,0.028

3.2760000000000002,0.028

3.278,0.028

3.2800000000000002,0.028

3.282,0.032

3.2840000000000003,0.032

3.286,0.032

3.2880000000000003,0.028

3.29,0.032

3.2920000000000003,0.028

3.294,0.032

3.2960000000000003,0.028

3.298,0.028

3.3000000000000003,0.028

3.302,0.028

3.3040000000000003,0.028

3.306,0.028

3.3080000000000003,0.028

3.31,0.028

3.3120000000000003,0.028

3.314,0.028

3.3160000000000003,0.028

3.318,0.028

3.3200000000000003,0.032

3.322,0.028

3.3240000000000003,0.028

3.326,0.024

3.3280000000000003,0.028

3.33,0.024

3.332,0.028

3.334,0.028

3.336,0.028

3.338,0.032

3.34,0.028

3.342,0.024

3.344,0.024

3.346,0.028

3.348,0.028

3.35,0.024

3.352,0.024

3.354,0.028

3.356,0.028

3.358,0.028

3.36,0.028

3.362,0.028

3.364,0.024

3.366,0.02

3.368,0.024

3.37,0.032

3.372,0.024

3.374,0.028

3.376,0.024

3.378,0.024

3.38,0.028

3.382,0.02

3.384,0.02

3.386,0.024

3.388,0.024

3.39,0.024

3.392,0.024

3.394,0.028

3.396,0.024

3.398,0.024

3.4,0.024

3.402,0.024

3.404,0.024

3.406,0.024

3.408,0.02

3.41,0.024

3.412,0.024

3.414,0.024

3.416,0.024

3.418,0.024

3.42,0.02

3.422,0.028

3.424,0.024

3.426,0.028

3.428,0.024

3.43,0.024

3.432,0.02

3.434,0.028

3.436,0.02

3.438,0.02

3.44,0.024

3.442,0.024

3.444,0.02

3.446,0.024

3.448,0.024

3.45,0.02

3.452,0.02

3.454,0.02

3.456,0.024

3.458,0.024

3.46,0.02

3.462,0.024

3.464,0.02

3.466,0.024

3.468,0.024

3.47,0.028

3.472,0.024

3.474,0.024

3.476,0.02

3.478,0.02

3.48,0.02

3.482,0.024

3.484,0.02

3.486,0.02

3.488,0.02

3.49,0.024

3.492,0.024

3.494,0.02

3.496,0.02

3.498,0.024

3.5,0.016

3.5020000000000002,0.02

3.504,0.028

3.5060000000000002,0.02

3.508,0.02

3.5100000000000002,0.02

3.512,0.024

3.5140000000000002,0.016

3.516,0.02

3.5180000000000002,0.016

3.52,0.02

3.5220000000000002,0.02

3.524,0.02

3.5260000000000002,0.02

3.528,0.02

3.5300000000000002,0.016

3.532,0.02

3.5340000000000003,0.02

3.536,0.02

3.5380000000000003,0.024

3.54,0.016

3.5420000000000003,0.02

3.544,0.02

3.5460000000000003,0.02

3.548,0.016

3.5500000000000003,0.02

3.552,0.016

3.5540000000000003,0.02

3.556,0.02

3.5580000000000003,0.016

3.56,0.012

3.5620000000000003,0.02

3.564,0.016

3.5660000000000003,0.02

3.568,0.016

3.5700000000000003,0.016

3.572,0.02

3.5740000000000003,0.016

3.576,0.016

3.5780000000000003,0.016

3.58,0.016

3.5820000000000003,0.016

3.584,0.016

3.586,0.016

3.588,0.02

3.59,0.016

3.592,0.016

3.594,0.02

3.596,0.016

3.598,0.016

3.6,0.016

3.602,0.02

3.604,0.012

3.606,0.016

3.608,0.02

3.61,0.016

3.612,0.012

3.614,0.02

3.616,0.016

3.618,0.012

3.62,0.02

3.622,0.012

3.624,0.012

3.626,0.016

3.628,0.012

3.63,0.016

3.632,0.012

3.634,0.012

3.636,0.016

3.638,0.012

3.64,0.016

3.642,0.012

3.644,0.012

3.646,0.008

3.648,0.012

3.65,0.016

3.652,0.016

3.654,0.012

3.656,0.016

3.658,0.012

3.66,0.008

3.662,0.008

3.664,0.008

3.666,0.008

3.668,0.012

3.67,0.016

3.672,0.016

3.674,0.012

3.676,0.008

3.678,0.012

3.68,0.012

3.682,0.016

3.684,0.012

3.686,0.008

3.688,0.012

3.69,0.012

3.692,0.012

3.694,0.016

3.696,0.012

3.698,0.008

3.7,0.008

3.702,0.012

3.704,0.012

3.706,0.012

3.708,0.012

3.71,0.012

3.712,0.008

3.714,0.012

3.716,0.008

3.718,0.012

3.72,0.012

3.722,0.012

3.724,0.008

3.726,0.008

3.728,0.012

3.73,0.008

3.732,0.008

3.734,0.012

3.736,0.008

3.738,0.008

3.74,0.008

3.742,0.012

3.744,0.008

3.746,0.008

3.748,0.012

3.75,0.012

3.7520000000000002,0.004

3.754,0.012

3.7560000000000002,0.012

3.758,0.008

3.7600000000000002,0.004

3.762,0.008

3.7640000000000002,0.008

3.766,0.012

3.7680000000000002,0.004

3.77,0.008

3.7720000000000002,0.008

3.774,0.008

3.7760000000000002,0.008

3.778,0.012

3.7800000000000002,0.004

3.782,0.008

3.7840000000000003,0.008

3.786,0.012

3.7880000000000003,0.008

3.79,0.012

3.7920000000000003,0.008

3.794,0.008

3.7960000000000003,0.008

3.798,0.008

3.8000000000000003,0.008

3.802,0.008

3.8040000000000003,0.004

3.806,0.008

3.8080000000000003,0.008

3.81,0.004

3.8120000000000003,0.008

3.814,0.004

3.8160000000000003,0.008

3.818,0.012

3.8200000000000003,0.004

3.822,0.008

3.8240000000000003,0.008

3.826,0.004

3.8280000000000003,0.008

3.83,0.004

3.8320000000000003,0.008

3.834,0.004

3.8360000000000003,0.008

3.838,0.008

3.84,0.008

3.842,0.012

3.844,0.004

3.846,0.0

3.848,0.004

3.85,0.004

3.852,0.008

3.854,0.004

3.856,0.004

3.858,0.004

3.86,0.004

3.862,0.004

3.864,0.004

3.866,0.004

3.868,0.0

3.87,0.004

3.872,0.004

3.874,0.004

3.876,0.004

3.878,0.004

3.88,0.004

3.882,0.004

3.884,0.0

3.886,0.004

3.888,0.008

3.89,0.008

3.892,0.008

3.894,0.004

3.896,0.004

3.898,0.004

3.9,0.0

3.902,0.004

3.904,0.004

3.906,0.004

3.908,0.0

3.91,0.008

3.912,0.008

3.914,0.004

3.916,0.0

3.918,0.004

3.92,0.004

3.922,0.004

3.924,0.0

3.926,0.0

3.928,0.004

3.93,0.004

3.932,0.004

3.934,0.0

3.936,0.0

3.938,0.004

3.94,0.004

3.942,0.0

3.944,-0.004

3.946,0.004

3.948,0.004

3.95,0.0

3.952,0.004

3.954,0.004

3.956,0.0

3.958,0.0

3.96,0.004

3.962,0.0

3.964,0.004

3.966,-0.004

3.968,0.0

3.97,0.0

3.972,0.0

3.974,0.004

3.976,0.0

3.978,0.0

3.98,0.004

3.982,0.0

3.984,0.004

3.986,-0.004

3.988,0.0

3.99,0.0

3.992,0.0

3.994,0.004

3.996,0.004

3.998,0.0

4.0,0.0

4.002,-0.004

4.0040000000000004,0.0

4.006,0.004

4.008,-0.004

4.01,0.0

4.0120000000000005,0.0

4.014,0.0

4.016,0.004

4.018,0.0

4.0200000000000005,0.0

4.022,0.0

4.024,0.0

4.026,-0.004

4.0280000000000005,-0.004

4.03,0.0

4.032,-0.004

4.034,0.0

4.0360000000000005,0.0

4.038,-0.004

4.04,-0.004

4.042,-0.004

4.0440000000000005,-0.004

4.046,0.0

4.048,-0.008

4.05,-0.004

4.0520000000000005,0.0

4.054,0.0

4.056,-0.004

4.058,-0.004

4.0600000000000005,0.0

4.062,0.0

4.064,-0.004

4.066,-0.004

4.0680000000000005,0.0

4.07,-0.004

4.072,0.0

4.074,0.0

4.0760000000000005,-0.004

4.078,0.0

4.08,0.0

4.082,-0.004

4.0840000000000005,-0.008

4.086,-0.004

4.088,-0.008

4.09,-0.004

4.0920000000000005,-0.004

4.094,-0.008

4.096,-0.004

4.098,-0.004

4.1,-0.004

4.102,-0.004

4.104,-0.004

4.106,-0.004

4.108,-0.004

4.11,-0.004

4.112,-0.004

4.114,-0.008

4.116,-0.004

4.118,-0.004

4.12,-0.004

4.122,-0.008

4.124,-0.008

4.126,-0.004

4.128,-0.008

4.13,-0.008

4.132,-0.008

4.134,-0.008

4.136,-0.004

4.138,-0.008

4.14,-0.004

4.142,-0.008

4.144,-0.004

4.146,-0.004

4.148,-0.004

4.15,-0.008

4.152,-0.008

4.154,-0.004

4.156,-0.004

4.158,-0.012

4.16,-0.008

4.162,-0.004

4.164,-0.012

4.166,-0.008

4.168,-0.008

4.17,-0.008

4.172,-0.008

4.174,-0.012

4.176,-0.012

4.178,-0.004

4.18,-0.012

4.182,-0.008

4.184,-0.008

4.186,-0.008

4.188,-0.008

4.19,-0.004

4.192,-0.008

4.194,-0.008

4.196,-0.008

4.198,-0.012

4.2,-0.008

4.202,-0.008

4.204,-0.004

4.206,-0.004

4.208,-0.008

4.21,-0.008

4.212,-0.008

4.214,-0.008

4.216,-0.012

4.218,-0.008

4.22,-0.004

4.222,-0.012

4.224,-0.008

4.226,-0.008

4.228,-0.004

4.23,-0.008

4.232,-0.008

4.234,-0.008

4.236,-0.008

4.238,-0.008

4.24,-0.012

4.242,-0.012

4.244,-0.008

4.246,-0.008

4.248,-0.008

4.25,-0.008

4.252,-0.008

4.2540000000000004,-0.012

4.256,-0.012

4.258,-0.008

4.26,-0.004

4.2620000000000005,-0.008

4.264,-0.008

4.266,-0.008

4.268,-0.012

4.2700000000000005,-0.012

4.272,-0.008

4.274,-0.012

4.276,-0.012

4.2780000000000005,-0.012

4.28,-0.008

4.282,-0.012

4.284,-0.012

4.2860000000000005,-0.012

4.288,-0.016

4.29,-0.008

4.292,-0.012

4.2940000000000005,-0.008

4.296,-0.008

4.298,-0.012

4.3,-0.008

4.3020000000000005,-0.008

4.304,-0.012

4.306,-0.012

4.308,-0.012

4.3100000000000005,-0.012

4.312,-0.016

4.314,-0.008

4.316,-0.012

4.3180000000000005,-0.012

4.32,-0.012

4.322,-0.012

4.324,-0.012

4.3260000000000005,-0.016

4.328,-0.008

4.33,-0.008

4.332,-0.016

4.3340000000000005,-0.016

4.336,-0.012

4.338,-0.012

4.34,-0.012

4.3420000000000005,-0.012

4.344,-0.016

4.346,-0.016

4.348,-0.012

4.3500000000000005,-0.016

4.352,-0.008

4.354,-0.016

4.356,-0.008

4.358,-0.008

4.36,-0.012

4.362,-0.012

4.364,-0.012

4.366,-0.016

4.368,-0.012

4.37,-0.012

4.372,-0.016

4.374,-0.016

4.376,-0.012

4.378,-0.016

4.38,-0.016

4.382,-0.016

4.384,-0.012

4.386,-0.012

4.388,-0.012

4.39,-0.016

4.392,-0.012

4.394,-0.008

4.396,-0.016

4.398,-0.02

4.4,-0.016

4.402,-0.016

4.404,-0.016

4.406,-0.008

4.408,-0.016

4.41,-0.02

4.412,-0.012

4.414,-0.012

4.416,-0.016

4.418,-0.012

4.42,-0.016

4.422,-0.02

4.424,-0.012

4.426,-0.012

4.428,-0.016

4.43,-0.016

4.432,-0.012

4.434,-0.016

4.436,-0.016

4.438,-0.02

4.44,-0.02

4.442,-0.016

4.444,-0.016

4.446,-0.02

4.448,-0.016

4.45,-0.016

4.452,-0.016

4.454,-0.016

4.456,-0.02

4.458,-0.024

4.46,-0.016

4.462,-0.016

4.464,-0.016

4.466,-0.016

4.468,-0.02

4.47,-0.016

4.472,-0.016

4.474,-0.016

4.476,-0.02

4.478,-0.016

4.48,-0.02

4.482,-0.02

4.484,-0.02

4.486,-0.016

4.488,-0.016

4.49,-0.02

4.492,-0.016

4.494,-0.02

4.496,-0.02

4.498,-0.02

4.5,-0.016

4.502,-0.02

4.5040000000000004,-0.02

4.506,-0.016

4.508,-0.02

4.51,-0.02

4.5120000000000005,-0.02

4.514,-0.016

4.516,-0.024

4.518,-0.02

4.5200000000000005,-0.024

4.522,-0.024

4.524,-0.016

4.526,-0.024

4.5280000000000005,-0.02

4.53,-0.02

4.532,-0.02

4.534,-0.024

4.5360000000000005,-0.024

4.538,-0.02

4.54,-0.02

4.542,-0.02

4.5440000000000005,-0.02

4.546,-0.024

4.548,-0.02

4.55,-0.02

4.5520000000000005,-0.024

4.554,-0.024

4.556,-0.024

4.558,-0.02

4.5600000000000005,-0.02

4.562,-0.024

4.564,-0.02

4.566,-0.02

4.5680000000000005,-0.024

4.57,-0.024

4.572,-0.024

4.574,-0.028

4.5760000000000005,-0.024

4.578,-0.02

4.58,-0.02

4.582,-0.02

4.5840000000000005,-0.024

4.586,-0.02

4.588,-0.024

4.59,-0.02

4.5920000000000005,-0.02

4.594,-0.024

4.596,-0.028

4.598,-0.024

4.6000000000000005,-0.024

4.602,-0.024

4.604,-0.024

4.606,-0.024

4.6080000000000005,-0.024

4.61,-0.016

4.612,-0.024

4.614,-0.02

4.616,-0.024

4.618,-0.024

4.62,-0.024

4.622,-0.028

4.624,-0.02

4.626,-0.024

4.628,-0.024

4.63,-0.024

4.632,-0.024

4.634,-0.024

4.636,-0.024

4.638,-0.024

4.64,-0.024

4.642,-0.024

4.644,-0.028

4.646,-0.02

4.648,-0.024

4.65,-0.024

4.652,-0.02

4.654,-0.024

4.656,-0.02

4.658,-0.02

4.66,-0.024

4.662,-0.024

4.664,-0.024

4.666,-0.028

4.668,-0.02

4.67,-0.024

4.672,-0.024

4.674,-0.02

4.676,-0.02

4.678,-0.024

4.68,-0.024

4.682,-0.024

4.684,-0.024

4.686,-0.024

4.688,-0.028

4.69,-0.024

4.692,-0.028

4.694,-0.028

4.696,-0.028

4.698,-0.024

4.7,-0.028

4.702,-0.028

4.704,-0.028

4.706,-0.024

4.708,-0.028

4.71,-0.024

4.712,-0.024

4.714,-0.024

4.716,-0.028

4.718,-0.028

4.72,-0.024

4.722,-0.024

4.724,-0.02

4.726,-0.024

4.728,-0.024

4.73,-0.024

4.732,-0.028

4.734,-0.028

4.736,-0.028

4.738,-0.032

4.74,-0.028

4.742,-0.028

4.744,-0.024

4.746,-0.028

4.748,-0.028

4.75,-0.028

4.752,-0.032

4.7540000000000004,-0.028

4.756,-0.028

4.758,-0.028

4.76,-0.032

4.7620000000000005,-0.028

4.764,-0.028

4.766,-0.028

4.768,-0.032

4.7700000000000005,-0.032

4.772,-0.024

4.774,-0.028

4.776,-0.024

4.7780000000000005,-0.028

4.78,-0.028

4.782,-0.028

4.784,-0.028

4.7860000000000005,-0.028

4.788,-0.028

4.79,-0.028

4.792,-0.032

4.7940000000000005,-0.028

4.796,-0.028

4.798,-0.028

4.8,-0.024

4.8020000000000005,-0.024

4.804,-0.028

4.806,-0.032

4.808,-0.028

4.8100000000000005,-0.028

4.812,-0.028

4.814,-0.028

4.816,-0.028

4.8180000000000005,-0.028

4.82,-0.028

4.822,-0.032

4.824,-0.028

4.8260000000000005,-0.028

4.828,-0.028

4.83,-0.028

4.832,-0.028

4.8340000000000005,-0.024

4.836,-0.028

4.838,-0.028

4.84,-0.028

4.8420000000000005,-0.032

4.844,-0.032

4.846,-0.028

4.848,-0.032

4.8500000000000005,-0.028

4.852,-0.032

4.854,-0.032

4.856,-0.028

4.8580000000000005,-0.028

4.86,-0.028

4.862,-0.032

4.864,-0.028

4.866,-0.028

4.868,-0.032

4.87,-0.032

4.872,-0.032

4.874,-0.032

4.876,-0.028

4.878,-0.036000000000000004

4.88,-0.032

4.882,-0.032

4.884,-0.032

4.886,-0.032

4.888,-0.032

4.89,-0.032

4.892,-0.032

4.894,-0.032

4.896,-0.028

4.898,-0.032

4.9,-0.032

4.902,-0.032

4.904,-0.032

4.906,-0.036000000000000004

4.908,-0.028

4.91,-0.032

4.912,-0.032

4.914,-0.032

4.916,-0.032

4.918,-0.028

4.92,-0.032

4.922,-0.028

4.924,-0.032

4.926,-0.032

4.928,-0.036000000000000004

4.93,-0.032

4.932,-0.028

4.934,-0.036000000000000004

4.936,-0.032

4.938,-0.032

4.94,-0.036000000000000004

4.942,-0.028

4.944,-0.032

4.946,-0.032

4.948,-0.032

4.95,-0.032

4.952,-0.032

4.954,-0.032

4.956,-0.032

4.958,-0.028

4.96,-0.032

4.962,-0.036000000000000004

4.964,-0.036000000000000004

4.966,-0.036000000000000004

4.968,-0.04

4.97,-0.032

4.972,-0.036000000000000004

4.974,-0.036000000000000004

4.976,-0.032

4.978,-0.036000000000000004

4.98,-0.04

4.982,-0.036000000000000004

4.984,-0.036000000000000004

4.986,-0.032

4.988,-0.032

4.99,-0.04

4.992,-0.036000000000000004

4.994,-0.032

4.996,-0.032

4.998,-0.032

5.0,-0.032

5.002,-0.036000000000000004

5.0040000000000004,-0.036000000000000004

5.006,-0.032

5.008,-0.036000000000000004

5.01,-0.032

5.0120000000000005,-0.032

5.014,-0.032

5.016,-0.036000000000000004

5.018,-0.032

5.0200000000000005,-0.036000000000000004

5.022,-0.036000000000000004

5.024,-0.032

5.026,-0.036000000000000004

5.0280000000000005,-0.036000000000000004

5.03,-0.036000000000000004

5.032,-0.036000000000000004

5.034,-0.036000000000000004

5.0360000000000005,-0.032

5.038,-0.036000000000000004

5.04,-0.036000000000000004

5.042,-0.032

5.0440000000000005,-0.036000000000000004

5.046,-0.036000000000000004

5.048,-0.036000000000000004

5.05,-0.036000000000000004

5.0520000000000005,-0.036000000000000004

5.054,-0.036000000000000004

5.056,-0.032

5.058,-0.036000000000000004

5.0600000000000005,-0.036000000000000004

5.062,-0.032

5.064,-0.036000000000000004

5.066,-0.036000000000000004

5.0680000000000005,-0.036000000000000004

5.07,-0.032

5.072,-0.032

5.074,-0.04

5.0760000000000005,-0.036000000000000004

5.078,-0.04

5.08,-0.036000000000000004

5.082,-0.036000000000000004

5.0840000000000005,-0.036000000000000004

5.086,-0.036000000000000004

5.088,-0.036000000000000004

5.09,-0.036000000000000004

5.0920000000000005,-0.04

5.094,-0.036000000000000004

5.096,-0.036000000000000004

5.098,-0.036000000000000004

5.1000000000000005,-0.036000000000000004

5.102,-0.036000000000000004

5.104,-0.036000000000000004

5.106,-0.032

5.1080000000000005,-0.036000000000000004

5.11,-0.036000000000000004

5.112,-0.04

5.114,-0.04

5.1160000000000005,-0.036000000000000004

5.118,-0.032

5.12,-0.036000000000000004

5.122,-0.036000000000000004

5.124,-0.036000000000000004

5.126,-0.036000000000000004

5.128,-0.036000000000000004

5.13,-0.04

5.132,-0.036000000000000004

5.134,-0.04

5.136,-0.036000000000000004

5.138,-0.036000000000000004

5.14,-0.036000000000000004

5.142,-0.04

5.144,-0.032

5.146,-0.036000000000000004

5.148,-0.032

5.15,-0.036000000000000004

5.152,-0.04

5.154,-0.036000000000000004

5.156,-0.032

5.158,-0.036000000000000004

5.16,-0.04

5.162,-0.04

5.164,-0.04

5.166,-0.036000000000000004

5.168,-0.04

5.17,-0.044

5.172,-0.036000000000000004

5.174,-0.036000000000000004

5.176,-0.036000000000000004

5.178,-0.04

5.18,-0.036000000000000004

5.182,-0.04

5.184,-0.04

5.186,-0.04

5.188,-0.04

5.19,-0.04

5.192,-0.04

5.194,-0.04

5.196,-0.036000000000000004

5.198,-0.04

5.2,-0.04

5.202,-0.04

5.204,-0.036000000000000004

5.206,-0.04

5.208,-0.036000000000000004

5.21,-0.04

5.212,-0.044

5.214,-0.036000000000000004

5.216,-0.04

5.218,-0.036000000000000004

5.22,-0.04

5.222,-0.04

5.224,-0.04

5.226,-0.04

5.228,-0.036000000000000004

5.23,-0.036000000000000004

5.232,-0.044

5.234,-0.04

5.236,-0.036000000000000004

5.238,-0.04

5.24,-0.04

5.242,-0.044

5.244,-0.04

5.246,-0.04

5.248,-0.036000000000000004

5.25,-0.036000000000000004

5.252,-0.036000000000000004

5.2540000000000004,-0.04

5.256,-0.036000000000000004

5.258,-0.04

5.26,-0.04

5.2620000000000005,-0.04

5.264,-0.04

5.266,-0.04

5.268,-0.04

5.2700000000000005,-0.04

5.272,-0.036000000000000004

5.274,-0.036000000000000004

5.276,-0.04

5.2780000000000005,-0.04

5.28,-0.04

5.282,-0.044

5.284,-0.044

5.2860000000000005,-0.04

5.288,-0.04

5.29,-0.04

5.292,-0.04

5.2940000000000005,-0.04

5.296,-0.04

5.298,-0.044

5.3,-0.044

5.3020000000000005,-0.044

5.304,-0.04

5.306,-0.044

5.308,-0.04

5.3100000000000005,-0.044

5.312,-0.044

5.314,-0.044

5.316,-0.04

5.3180000000000005,-0.044

5.32,-0.044

5.322,-0.044

5.324,-0.044

5.3260000000000005,-0.04

5.328,-0.044

5.33,-0.044

5.332,-0.04

5.3340000000000005,-0.04

5.336,-0.04

5.338,-0.04

5.34,-0.036000000000000004

5.3420000000000005,-0.044

5.344,-0.04

5.346,-0.044

5.348,-0.04

5.3500000000000005,-0.044

5.352,-0.048

5.354,-0.04

5.356,-0.044

5.3580000000000005,-0.048

5.36,-0.044

5.362,-0.044

5.364,-0.044

5.3660000000000005,-0.044

5.368,-0.044

5.37,-0.044

5.372,-0.044

5.3740000000000006,-0.04

5.376,-0.044

5.378,-0.04

5.38,-0.04

5.382,-0.044

5.384,-0.044

5.386,-0.044

5.388,-0.04

5.39,-0.04

5.392,-0.04

5.394,-0.044

5.396,-0.044

5.398,-0.044

5.4,-0.044

5.402,-0.044

5.404,-0.044

5.406,-0.044

5.408,-0.048

5.41,-0.048

5.412,-0.044

5.414,-0.044

5.416,-0.04

5.418,-0.044

5.42,-0.04

5.422,-0.044

5.424,-0.048

5.426,-0.044

5.428,-0.044

5.43,-0.044

5.432,-0.048

5.434,-0.044

5.436,-0.04

5.438,-0.044

5.44,-0.044

5.442,-0.044

5.444,-0.044

5.446,-0.048

5.448,-0.044

5.45,-0.044

5.452,-0.044

5.454,-0.04

5.456,-0.044

5.458,-0.04

5.46,-0.048

5.462,-0.044

5.464,-0.044

5.466,-0.04

5.468,-0.044

5.47,-0.048

5.472,-0.048

5.474,-0.044

5.476,-0.044

5.478,-0.04

5.48,-0.044

5.482,-0.04

5.484,-0.048

5.486,-0.048

5.488,-0.044

5.49,-0.04

5.492,-0.044

5.494,-0.044

5.496,-0.044

5.498,-0.048

5.5,-0.048

5.502,-0.044

5.5040000000000004,-0.044

5.506,-0.044

5.508,-0.044

5.51,-0.044

5.5120000000000005,-0.044

5.514,-0.044

5.516,-0.044

5.518,-0.044

5.5200000000000005,-0.044

5.522,-0.048

5.524,-0.048

5.526,-0.04

5.5280000000000005,-0.044

5.53,-0.048

5.532,-0.04

5.534,-0.048

5.5360000000000005,-0.044

5.538,-0.044

5.54,-0.048

5.542,-0.044

5.5440000000000005,-0.044

5.546,-0.048

5.548,-0.044

5.55,-0.048

5.5520000000000005,-0.044

5.554,-0.044

5.556,-0.048

5.558,-0.044

5.5600000000000005,-0.048

5.562,-0.048

5.564,-0.048

5.566,-0.048

5.5680000000000005,-0.044

5.57,-0.044

5.572,-0.048

5.574,-0.044

5.5760000000000005,-0.044

5.578,-0.048

5.58,-0.044

5.582,-0.044

5.5840000000000005,-0.052000000000000005

5.586,-0.044

5.588,-0.048

5.59,-0.048

5.5920000000000005,-0.044

5.594,-0.044

5.596,-0.048

5.598,-0.048

5.6000000000000005,-0.048

5.602,-0.048

5.604,-0.048

5.606,-0.044

5.6080000000000005,-0.048

5.61,-0.048

5.612,-0.044

5.614,-0.048

5.6160000000000005,-0.044

5.618,-0.044

5.62,-0.052000000000000005

5.622,-0.048

5.6240000000000006,-0.04

5.626,-0.044

5.628,-0.048

5.63,-0.044

5.632,-0.044

5.634,-0.048

5.636,-0.044

5.638,-0.044

5.64,-0.048

5.642,-0.048

5.644,-0.044

5.646,-0.044

5.648,-0.044

5.65,-0.044

5.652,-0.048

5.654,-0.048

5.656,-0.052000000000000005

5.658,-0.044

5.66,-0.044

5.662,-0.044

5.664,-0.044

5.666,-0.044

5.668,-0.048

5.67,-0.044

5.672,-0.052000000000000005

5.674,-0.048

5.676,-0.048

5.678,-0.048

5.68,-0.044

5.682,-0.04

5.684,-0.048

5.686,-0.048

5.688,-0.044

5.69,-0.048

5.692,-0.048

5.694,-0.052000000000000005

5.696,-0.048

5.698,-0.052000000000000005

5.7,-0.048

5.702,-0.048

5.704,-0.048

5.706,-0.048

5.708,-0.048

5.71,-0.044

5.712,-0.048

5.714,-0.048

5.716,-0.048

5.718,-0.048

5.72,-0.044

5.722,-0.048

5.724,-0.048

5.726,-0.052000000000000005

5.728,-0.048

5.73,-0.044

5.732,-0.048

5.734,-0.048

5.736,-0.044

5.738,-0.048

5.74,-0.048

5.742,-0.048

5.744,-0.044

5.746,-0.048

5.748,-0.048

5.75,-0.048

5.752,-0.048

5.7540000000000004,-0.048

5.756,-0.044

5.758,-0.052000000000000005

5.76,-0.052000000000000005

5.7620000000000005,-0.044

5.764,-0.052000000000000005

5.766,-0.044

5.768,-0.048

5.7700000000000005,-0.048

5.772,-0.048

5.774,-0.044

5.776,-0.044

5.7780000000000005,-0.048

5.78,-0.048

5.782,-0.048

5.784,-0.048

5.7860000000000005,-0.044

5.788,-0.048

5.79,-0.044

5.792,-0.048

5.7940000000000005,-0.048

5.796,-0.048

5.798,-0.052000000000000005

5.8,-0.048

5.8020000000000005,-0.048

5.804,-0.048

5.806,-0.048

5.808,-0.052000000000000005

5.8100000000000005,-0.048

5.812,-0.048

5.814,-0.048

5.816,-0.048

5.8180000000000005,-0.048

5.82,-0.048

5.822,-0.048

5.824,-0.048

5.8260000000000005,-0.048

5.828,-0.048

5.83,-0.048

5.832,-0.048

5.8340000000000005,-0.048

5.836,-0.048

5.838,-0.048

5.84,-0.048

5.8420000000000005,-0.048

5.844,-0.044

5.846,-0.048

5.848,-0.048

5.8500000000000005,-0.044

5.852,-0.048

5.854,-0.044

5.856,-0.048

5.8580000000000005,-0.048

5.86,-0.048

5.862,-0.052000000000000005

5.864,-0.044

5.8660000000000005,-0.048

5.868,-0.048

5.87,-0.048

5.872,-0.048

5.8740000000000006,-0.048

5.876,-0.052000000000000005

5.878,-0.048

5.88,-0.048

5.882000000000001,-0.048

5.884,-0.048

5.886,-0.048

5.888,-0.052000000000000005

5.89,-0.048

5.892,-0.048

5.894,-0.048

5.896,-0.048

5.898,-0.044

5.9,-0.048

5.902,-0.044

5.904,-0.048

5.906,-0.052000000000000005

5.908,-0.052000000000000005

5.91,-0.048

5.912,-0.048

5.914,-0.048

5.916,-0.052000000000000005

5.918,-0.044

5.92,-0.044

5.922,-0.048

5.924,-0.048

5.926,-0.048

5.928,-0.048

5.93,-0.048

5.932,-0.048

5.934,-0.048

5.936,-0.048

5.938,-0.052000000000000005

5.94,-0.052000000000000005

5.942,-0.052000000000000005

5.944,-0.044

5.946,-0.052000000000000005

5.948,-0.048

5.95,-0.052000000000000005

5.952,-0.052000000000000005

5.954,-0.048

5.956,-0.052000000000000005

5.958,-0.052000000000000005

5.96,-0.048

5.962,-0.052000000000000005

5.964,-0.044

5.966,-0.052000000000000005

5.968,-0.048

5.97,-0.048

5.972,-0.048

5.974,-0.048

5.976,-0.052000000000000005

5.978,-0.048

5.98,-0.048

5.982,-0.048

5.984,-0.048

5.986,-0.052000000000000005

5.988,-0.048

5.99,-0.048

5.992,-0.048

5.994,-0.048

5.996,-0.048

5.998,-0.048

6.0,-0.048

6.002,-0.044

6.0040000000000004,-0.052000000000000005

6.006,-0.052000000000000005

6.008,-0.044

6.01,-0.052000000000000005

6.0120000000000005,-0.052000000000000005

6.014,-0.048

6.016,-0.048

6.018,-0.048

6.0200000000000005,-0.048

6.022,-0.052000000000000005

6.024,-0.052000000000000005

6.026,-0.048

6.0280000000000005,-0.048

6.03,-0.048

6.032,-0.048

6.034,-0.044

6.0360000000000005,-0.048

6.038,-0.048

6.04,-0.052000000000000005

6.042,-0.048

6.0440000000000005,-0.048

6.046,-0.052000000000000005

6.048,-0.048

6.05,-0.052000000000000005

6.0520000000000005,-0.048

6.054,-0.044

6.056,-0.052000000000000005

6.058,-0.052000000000000005

6.0600000000000005,-0.044

6.062,-0.052000000000000005

6.064,-0.048

6.066,-0.052000000000000005

6.0680000000000005,-0.052000000000000005

6.07,-0.052000000000000005

6.072,-0.052000000000000005

6.074,-0.052000000000000005

6.0760000000000005,-0.052000000000000005

6.078,-0.052000000000000005

6.08,-0.048

6.082,-0.052000000000000005

6.0840000000000005,-0.048

6.086,-0.048

6.088,-0.048

6.09,-0.048

6.0920000000000005,-0.048

6.094,-0.048

6.096,-0.048

6.098,-0.048

6.1000000000000005,-0.052000000000000005

6.102,-0.048

6.104,-0.052000000000000005

6.106,-0.052000000000000005

6.1080000000000005,-0.052000000000000005

6.11,-0.048

6.112,-0.052000000000000005

6.114,-0.048

6.1160000000000005,-0.048

6.118,-0.044

6.12,-0.048

6.122,-0.052000000000000005

6.1240000000000006,-0.048

6.126,-0.048

6.128,-0.052000000000000005

6.13,-0.052000000000000005

6.132000000000001,-0.048

6.134,-0.052000000000000005

6.136,-0.048

6.138,-0.044

6.140000000000001,-0.044

6.142,-0.048

6.144,-0.048

6.146,-0.052000000000000005

6.148,-0.048

6.15,-0.048

6.152,-0.048

6.154,-0.052000000000000005

6.156,-0.052000000000000005

6.158,-0.052000000000000005

6.16,-0.052000000000000005

6.162,-0.048

6.164,-0.048

6.166,-0.052000000000000005

6.168,-0.048

6.17,-0.044

6.172,-0.044

6.174,-0.044

6.176,-0.048

6.178,-0.052000000000000005

6.18,-0.048

6.182,-0.044

6.184,-0.048

6.186,-0.048

6.188,-0.052000000000000005

6.19,-0.048

6.192,-0.048

6.194,-0.048

6.196,-0.048

6.198,-0.048

6.2,-0.048

6.202,-0.052000000000000005

6.204,-0.052000000000000005

6.206,-0.052000000000000005

6.208,-0.048

6.21,-0.048

6.212,-0.048

6.214,-0.048

6.216,-0.052000000000000005

6.218,-0.048

6.22,-0.044

6.222,-0.052000000000000005

6.224,-0.048

6.226,-0.048

6.228,-0.052000000000000005

6.23,-0.048

6.232,-0.052000000000000005

6.234,-0.052000000000000005

6.236,-0.048

6.238,-0.052000000000000005

6.24,-0.052000000000000005

6.242,-0.044

6.244,-0.048

6.246,-0.044

6.248,-0.048

6.25,-0.048

6.252,-0.048

6.2540000000000004,-0.048

6.256,-0.044

6.258,-0.048

6.26,-0.048

6.2620000000000005,-0.048

6.264,-0.052000000000000005

6.266,-0.044

6.268,-0.048

6.2700000000000005,-0.044

6.272,-0.048

6.274,-0.048

6.276,-0.048

6.2780000000000005,-0.048

6.28,-0.04

6.282,-0.048

6.284,-0.052000000000000005

6.2860000000000005,-0.044

6.288,-0.044

6.29,-0.044

6.292,-0.052000000000000005

6.2940000000000005,-0.044

6.296,-0.048

6.298,-0.044

6.3,-0.048

6.3020000000000005,-0.048

6.304,-0.048

6.306,-0.048

6.308,-0.048

6.3100000000000005,-0.048

6.312,-0.048

6.314,-0.044

6.316,-0.048

6.3180000000000005,-0.048

6.32,-0.052000000000000005

6.322,-0.044

6.324,-0.044

6.3260000000000005,-0.044

6.328,-0.044

6.33,-0.044

6.332,-0.044

6.3340000000000005,-0.048

6.336,-0.052000000000000005

6.338,-0.044

6.34,-0.048

6.3420000000000005,-0.048

6.344,-0.048

6.346,-0.048

6.348,-0.044

6.3500000000000005,-0.044

6.352,-0.048

6.354,-0.052000000000000005

6.356,-0.044

6.3580000000000005,-0.048

6.36,-0.044

6.362,-0.048

6.364,-0.044

6.3660000000000005,-0.048

6.368,-0.044

6.37,-0.048

6.372,-0.052000000000000005

6.3740000000000006,-0.048

6.376,-0.048

6.378,-0.048

6.38,-0.048

6.382000000000001,-0.052000000000000005

6.384,-0.048

6.386,-0.044

6.388,-0.044

6.390000000000001,-0.048

6.392,-0.048

6.394,-0.044

6.396,-0.048

6.398000000000001,-0.04

6.4,-0.048

6.402,-0.048

6.404,-0.044

6.406,-0.048

6.408,-0.044

6.41,-0.052000000000000005

6.412,-0.04

6.414,-0.052000000000000005

6.416,-0.048

6.418,-0.044

6.42,-0.052000000000000005

6.422,-0.044

6.424,-0.044

6.426,-0.044

6.428,-0.044

6.43,-0.044

6.432,-0.048

6.434,-0.048

6.436,-0.044

6.438,-0.04

6.44,-0.04

6.442,-0.048

6.444,-0.048

6.446,-0.044

6.448,-0.048

6.45,-0.048

6.452,-0.044

6.454,-0.052000000000000005

6.456,-0.048

6.458,-0.044

6.46,-0.044

6.462,-0.048

6.464,-0.048

6.466,-0.044

6.468,-0.044

6.47,-0.048

6.472,-0.048

6.474,-0.048

6.476,-0.048

6.478,-0.044

6.48,-0.044

6.482,-0.044

6.484,-0.044

6.486,-0.048

6.488,-0.044

6.49,-0.048

6.492,-0.044

6.494,-0.048

6.496,-0.044

6.498,-0.044

6.5,-0.048

6.502,-0.044

6.5040000000000004,-0.04

6.506,-0.048

6.508,-0.044

6.51,-0.048

6.5120000000000005,-0.048

6.514,-0.048

6.516,-0.04

6.518,-0.048

6.5200000000000005,-0.048

6.522,-0.044

6.524,-0.044

6.526,-0.044

6.5280000000000005,-0.044

6.53,-0.044

6.532,-0.048

6.534,-0.044

6.5360000000000005,-0.044

6.538,-0.048

6.54,-0.044

6.542,-0.044

6.5440000000000005,-0.044

6.546,-0.048

6.548,-0.044

6.55,-0.044

6.5520000000000005,-0.048

6.554,-0.048

6.556,-0.048

6.558,-0.044

6.5600000000000005,-0.048

6.562,-0.048

6.564,-0.048

6.566,-0.048

6.5680000000000005,-0.044

6.57,-0.048

6.572,-0.048

6.574,-0.044

6.5760000000000005,-0.048

6.578,-0.044

6.58,-0.044

6.582,-0.044

6.5840000000000005,-0.048

6.586,-0.044

6.588,-0.048

6.59,-0.044

6.5920000000000005,-0.044

6.594,-0.044

6.596,-0.048

6.598,-0.048

6.6000000000000005,-0.044

6.602,-0.048

6.604,-0.048

6.606,-0.044

6.6080000000000005,-0.048

6.61,-0.044

6.612,-0.04

6.614,-0.04

6.6160000000000005,-0.044

6.618,-0.048

6.62,-0.044

6.622,-0.048

6.6240000000000006,-0.048

6.626,-0.044

6.628,-0.044

6.63,-0.048

6.632000000000001,-0.044

6.634,-0.044

6.636,-0.04

6.638,-0.044

6.640000000000001,-0.04

6.642,-0.04

6.644,-0.04

6.646,-0.04

6.648000000000001,-0.044

6.65,-0.04

6.652,-0.044

6.654,-0.044

6.656000000000001,-0.04

6.658,-0.048

6.66,-0.044

6.662,-0.044

6.664,-0.044

6.666,-0.04

6.668,-0.044

6.67,-0.04

6.672,-0.044

6.674,-0.04

6.676,-0.044

6.678,-0.04

6.68,-0.04

6.682,-0.044

6.684,-0.04

6.686,-0.044

6.688,-0.044

6.69,-0.04

6.692,-0.044

6.694,-0.04

6.696,-0.048

6.698,-0.044

6.7,-0.044

6.702,-0.044

6.704,-0.044

6.706,-0.044

6.708,-0.044

6.71,-0.044

6.712,-0.04

6.714,-0.04

6.716,-0.04

6.718,-0.044

6.72,-0.044

6.722,-0.04

6.724,-0.04

6.726,-0.04

6.728,-0.04

6.73,-0.044

6.732,-0.044

6.734,-0.04

6.736,-0.044

6.738,-0.04

6.74,-0.044

6.742,-0.044

6.744,-0.044

6.746,-0.044

6.748,-0.048

6.75,-0.04

6.752,-0.04

6.7540000000000004,-0.044

6.756,-0.044

6.758,-0.04

6.76,-0.036000000000000004

6.7620000000000005,-0.04

6.764,-0.044

6.766,-0.04

6.768,-0.044

6.7700000000000005,-0.04

6.772,-0.044

6.774,-0.044

6.776,-0.044

6.7780000000000005,-0.044

6.78,-0.044

6.782,-0.04

6.784,-0.04

6.7860000000000005,-0.044

6.788,-0.04

6.79,-0.04

6.792,-0.04

6.7940000000000005,-0.04

6.796,-0.044

6.798,-0.048

6.8,-0.044

6.8020000000000005,-0.036000000000000004

6.804,-0.044

6.806,-0.04

6.808,-0.04

6.8100000000000005,-0.044

6.812,-0.04

6.814,-0.04

6.816,-0.04

6.8180000000000005,-0.04

6.82,-0.04

6.822,-0.04

6.824,-0.04

6.8260000000000005,-0.048

6.828,-0.04

6.83,-0.044

6.832,-0.032

6.8340000000000005,-0.044

6.836,-0.04

6.838,-0.04

6.84,-0.044

6.8420000000000005,-0.04

6.844,-0.04

6.846,-0.036000000000000004

6.848,-0.04

6.8500000000000005,-0.04

6.852,-0.04

6.854,-0.04

6.856,-0.04

6.8580000000000005,-0.036000000000000004

6.86,-0.04

6.862,-0.04

6.864,-0.04

6.8660000000000005,-0.04

6.868,-0.04

6.87,-0.04

6.872,-0.04

6.8740000000000006,-0.04

6.876,-0.036000000000000004

6.878,-0.044

6.88,-0.04

6.882000000000001,-0.036000000000000004

6.884,-0.04

6.886,-0.04

6.888,-0.04

6.890000000000001,-0.04

6.892,-0.036000000000000004

6.894,-0.04

6.896,-0.04

6.898000000000001,-0.036000000000000004

6.9,-0.036000000000000004

6.902,-0.04

6.904,-0.04

6.906000000000001,-0.04

6.908,-0.036000000000000004

6.91,-0.04

6.912,-0.04

6.914,-0.04

6.916,-0.04

6.918,-0.036000000000000004

6.92,-0.04

6.922,-0.036000000000000004

6.924,-0.036000000000000004

6.926,-0.04

6.928,-0.036000000000000004

6.93,-0.04

6.932,-0.036000000000000004

6.934,-0.036000000000000004

6.936,-0.036000000000000004

6.938,-0.036000000000000004

6.94,-0.036000000000000004

6.942,-0.036000000000000004

6.944,-0.04

6.946,-0.04

6.948,-0.04

6.95,-0.036000000000000004

6.952,-0.036000000000000004

6.954,-0.036000000000000004

6.956,-0.036000000000000004

6.958,-0.04

6.96,-0.036000000000000004

6.962,-0.036000000000000004

6.964,-0.036000000000000004

6.966,-0.032

6.968,-0.036000000000000004

6.97,-0.04

6.972,-0.04

6.974,-0.036000000000000004

6.976,-0.036000000000000004

6.978,-0.04

6.98,-0.036000000000000004

6.982,-0.036000000000000004

6.984,-0.04

6.986,-0.04

6.988,-0.04

6.99,-0.036000000000000004

6.992,-0.032

6.994,-0.036000000000000004

6.996,-0.04

6.998,-0.036000000000000004

7.0,-0.036000000000000004

7.002,-0.036000000000000004

7.0040000000000004,-0.04

7.006,-0.04

7.008,-0.036000000000000004

7.01,-0.04

7.0120000000000005,-0.036000000000000004

7.014,-0.04

7.016,-0.036000000000000004

7.018,-0.032

7.0200000000000005,-0.032

7.022,-0.036000000000000004

7.024,-0.04

7.026,-0.04

7.0280000000000005,-0.04

7.03,-0.04

7.032,-0.036000000000000004

7.034,-0.036000000000000004

7.0360000000000005,-0.032

7.038,-0.036000000000000004

7.04,-0.04

7.042,-0.036000000000000004

7.0440000000000005,-0.036000000000000004

7.046,-0.036000000000000004

7.048,-0.036000000000000004

7.05,-0.036000000000000004

7.0520000000000005,-0.032

7.054,-0.04

7.056,-0.036000000000000004

7.058,-0.036000000000000004

7.0600000000000005,-0.036000000000000004

7.062,-0.036000000000000004

7.064,-0.036000000000000004

7.066,-0.032

7.0680000000000005,-0.036000000000000004

7.07,-0.036000000000000004

7.072,-0.036000000000000004

7.074,-0.036000000000000004

7.0760000000000005,-0.036000000000000004

7.078,-0.036000000000000004

7.08,-0.032

7.082,-0.036000000000000004

7.0840000000000005,-0.036000000000000004

7.086,-0.036000000000000004

7.088,-0.036000000000000004

7.09,-0.036000000000000004

7.0920000000000005,-0.036000000000000004

7.094,-0.04

7.096,-0.036000000000000004

7.098,-0.032

7.1000000000000005,-0.036000000000000004

7.102,-0.036000000000000004

7.104,-0.036000000000000004

7.106,-0.036000000000000004

7.1080000000000005,-0.036000000000000004

7.11,-0.032

7.112,-0.036000000000000004

7.114,-0.032

7.1160000000000005,-0.028

7.118,-0.036000000000000004

7.12,-0.032

7.122,-0.032

7.1240000000000006,-0.036000000000000004

7.126,-0.04

7.128,-0.036000000000000004

7.13,-0.032

7.132000000000001,-0.032

7.134,-0.036000000000000004

7.136,-0.036000000000000004

7.138,-0.032

7.140000000000001,-0.032

7.142,-0.032

7.144,-0.036000000000000004

7.146,-0.036000000000000004

7.148000000000001,-0.028

7.15,-0.036000000000000004

7.152,-0.028

7.154,-0.036000000000000004

7.156000000000001,-0.036000000000000004

7.158,-0.028

7.16,-0.032

7.162,-0.032

7.164000000000001,-0.032

7.166,-0.032

7.168,-0.04

7.17,-0.036000000000000004

7.172,-0.032

7.174,-0.032

7.176,-0.032

7.178,-0.032

7.18,-0.036000000000000004

7.182,-0.032

7.184,-0.032

7.186,-0.028

7.188,-0.036000000000000004

7.19,-0.032

7.192,-0.032

7.194,-0.036000000000000004

7.196,-0.028

7.198,-0.032

7.2,-0.032

7.202,-0.028

7.204,-0.032

7.206,-0.032

7.208,-0.032

7.21,-0.028

7.212,-0.032

7.214,-0.032

7.216,-0.032

7.218,-0.028

7.22,-0.032

7.222,-0.036000000000000004

7.224,-0.032

7.226,-0.032

7.228,-0.032

7.23,-0.032

7.232,-0.028

7.234,-0.032

7.236,-0.032

7.238,-0.028

7.24,-0.032

7.242,-0.028

7.244,-0.036000000000000004

7.246,-0.032

7.248,-0.032

7.25,-0.028

7.252,-0.032

7.2540000000000004,-0.028

7.256,-0.028

7.258,-0.032

7.26,-0.028

7.2620000000000005,-0.032

7.264,-0.028

7.266,-0.028

7.268,-0.036000000000000004

7.2700000000000005,-0.028

7.272,-0.024

7.274,-0.024

7.276,-0.028

7.2780000000000005,-0.028

7.28,-0.028

7.282,-0.028

7.284,-0.028

7.2860000000000005,-0.032

7.288,-0.032

7.29,-0.032

7.292,-0.024

7.2940000000000005,-0.032

7.296,-0.024

7.298,-0.028

7.3,-0.028

7.3020000000000005,-0.028

7.304,-0.028

7.306,-0.028

7.308,-0.024

7.3100000000000005,-0.028

7.312,-0.028

7.314,-0.024

7.316,-0.028

7.3180000000000005,-0.028

7.32,-0.028

7.322,-0.028

7.324,-0.032

7.3260000000000005,-0.028

7.328,-0.028

7.33,-0.032

7.332,-0.028

7.3340000000000005,-0.028

7.336,-0.032

7.338,-0.028

7.34,-0.024

7.3420000000000005,-0.028

7.344,-0.028

7.346,-0.028

7.348,-0.028

7.3500000000000005,-0.024

7.352,-0.028

7.354,-0.024

7.356,-0.024

7.3580000000000005,-0.024

7.36,-0.028

7.362,-0.024

7.364,-0.028

7.3660000000000005,-0.028

7.368,-0.028

7.37,-0.024

7.372,-0.028

7.3740000000000006,-0.028

7.376,-0.024

7.378,-0.028

7.38,-0.024

7.382000000000001,-0.024

7.384,-0.028

7.386,-0.024

7.388,-0.024

7.390000000000001,-0.028

7.392,-0.028

7.394,-0.024

7.396,-0.024

7.398000000000001,-0.028

7.4,-0.02

7.402,-0.024

7.404,-0.028

7.406000000000001,-0.024

7.408,-0.02

7.41,-0.024

7.412,-0.02

7.414000000000001,-0.024

7.416,-0.02

7.418,-0.024

7.42,-0.024

7.422000000000001,-0.024

7.424,-0.024

7.426,-0.02

7.428,-0.028

7.43,-0.024

7.432,-0.024

7.434,-0.024

7.436,-0.028

7.438,-0.02

7.44,-0.02

7.442,-0.024

7.444,-0.024

7.446,-0.02

7.448,-0.02

7.45,-0.024

7.452,-0.024

7.454,-0.024

7.456,-0.02

7.458,-0.024

7.46,-0.028

7.462,-0.02

7.464,-0.024

7.466,-0.02

7.468,-0.024

7.47,-0.024

7.472,-0.024

7.474,-0.024

7.476,-0.02

7.478,-0.024

7.48,-0.024

7.482,-0.024

7.484,-0.024

7.486,-0.024

7.488,-0.02

7.49,-0.02

7.492,-0.02

7.494,-0.024

7.496,-0.02

7.498,-0.02

7.5,-0.016

7.502,-0.02

7.5040000000000004,-0.024

7.506,-0.02

7.508,-0.024

7.51,-0.024

7.5120000000000005,-0.02

7.514,-0.024

7.516,-0.024

7.518,-0.02

7.5200000000000005,-0.02

7.522,-0.02

7.524,-0.02

7.526,-0.02

7.5280000000000005,-0.016

7.53,-0.024

7.532,-0.02

7.534,-0.02

7.5360000000000005,-0.02

7.538,-0.02

7.54,-0.02

7.542,-0.02

7.5440000000000005,-0.024

7.546,-0.02

7.548,-0.02

7.55,-0.02

7.5520000000000005,-0.02

7.554,-0.02

7.556,-0.02

7.558,-0.02

7.5600000000000005,-0.02

7.562,-0.016

7.564,-0.02

7.566,-0.02

7.5680000000000005,-0.02

7.57,-0.02

7.572,-0.02

7.574,-0.016

7.5760000000000005,-0.024

7.578,-0.02

7.58,-0.016

7.582,-0.016

7.5840000000000005,-0.016

7.586,-0.016

7.588,-0.016

7.59,-0.02

7.5920000000000005,-0.02

7.594,-0.02

7.596,-0.016

7.598,-0.02

7.6000000000000005,-0.016

7.602,-0.016

7.604,-0.02

7.606,-0.016

7.6080000000000005,-0.016

7.61,-0.02

7.612,-0.016

7.614,-0.016

7.6160000000000005,-0.016

7.618,-0.02

7.62,-0.02

7.622,-0.02

7.6240000000000006,-0.016

7.626,-0.02

7.628,-0.016

7.63,-0.016

7.632000000000001,-0.02

7.634,-0.024

7.636,-0.02

7.638,-0.016

7.640000000000001,-0.016

7.642,-0.02

7.644,-0.016

7.646,-0.016

7.648000000000001,-0.02

7.65,-0.02

7.652,-0.016

7.654,-0.012

7.656000000000001,-0.02

7.658,-0.016

7.66,-0.016

7.662,-0.016

7.664000000000001,-0.016

7.666,-0.016

7.668,-0.012

7.67,-0.02

7.672000000000001,-0.02

7.674,-0.012

7.676,-0.016

7.678,-0.016

7.68,-0.016

7.682,-0.016

7.684,-0.012

7.686,-0.016

7.688,-0.02

7.69,-0.016

7.692,-0.012

7.694,-0.016

7.696,-0.016

7.698,-0.016

7.7,-0.012

7.702,-0.012

7.704,-0.016

7.706,-0.016

7.708,-0.016

7.71,-0.012

7.712,-0.016

7.714,-0.016

7.716,-0.02

7.718,-0.016

7.72,-0.016

7.722,-0.012

7.724,-0.016

7.726,-0.016

7.728,-0.016

7.73,-0.012

7.732,-0.016

7.734,-0.016

7.736,-0.012

7.738,-0.012

7.74,-0.016

7.742,-0.012

7.744,-0.016

7.746,-0.012

7.748,-0.012

7.75,-0.012

7.752,-0.016

7.7540000000000004,-0.012

7.756,-0.012

7.758,-0.012

7.76,-0.008

7.7620000000000005,-0.016

7.764,-0.012

7.766,-0.016

7.768,-0.016

7.7700000000000005,-0.016

7.772,-0.016

7.774,-0.012

7.776,-0.016

7.7780000000000005,-0.016

7.78,-0.012

7.782,-0.008

7.784,-0.016

7.7860000000000005,-0.012

7.788,-0.016

7.79,-0.008

7.792,-0.008

7.7940000000000005,-0.016

7.796,-0.012

7.798,-0.012

7.8,-0.012

7.8020000000000005,-0.012

7.804,-0.012

7.806,-0.016

7.808,-0.012

7.8100000000000005,-0.012

7.812,-0.008

7.814,-0.012

7.816,-0.012

7.8180000000000005,-0.012

7.82,-0.008

7.822,-0.012

7.824,-0.008

7.8260000000000005,-0.012

7.828,-0.008

7.83,-0.008

7.832,-0.008

7.8340000000000005,-0.012

7.836,-0.008

7.838,-0.008

7.84,-0.008

7.8420000000000005,-0.012

7.844,-0.012

7.846,-0.008

7.848,-0.012

7.8500000000000005,-0.008

7.852,-0.008

7.854,-0.012

7.856,-0.012

7.8580000000000005,-0.012

7.86,-0.008

7.862,-0.008

7.864,-0.004

7.8660000000000005,-0.004

7.868,-0.008

7.87,-0.012

7.872,-0.004

7.8740000000000006,-0.012

7.876,-0.008

7.878,-0.004

7.88,-0.008

7.882000000000001,-0.008

7.884,-0.008

7.886,-0.008

7.888,-0.008

7.890000000000001,-0.008

7.892,-0.004

7.894,-0.008

7.896,-0.008

7.898000000000001,-0.008

7.9,-0.004

7.902,-0.008

7.904,-0.008

7.906000000000001,-0.004

7.908,-0.004

7.91,-0.012

7.912,-0.004

7.914000000000001,-0.004

7.916,0.0

7.918,-0.008

7.92,-0.008

7.922000000000001,0.0

7.924,-0.008

7.926,-0.004

7.928,-0.008

7.930000000000001,-0.008

7.932,-0.012

7.934,-0.008

7.936,-0.012

7.938,-0.008

7.94,-0.008

7.942,-0.008

7.944,-0.004

7.946,-0.004

7.948,-0.004

7.95,-0.004

7.952,-0.004

7.954,-0.008

7.956,0.0

7.958,-0.004

7.96,-0.008

7.962,-0.008

7.964,-0.008

7.966,-0.004

7.968,-0.008

7.97,-0.004

7.972,-0.004

7.974,-0.008

7.976,-0.004

7.978,-0.008

7.98,-0.004

7.982,-0.004

7.984,-0.004

7.986,-0.004

7.988,-0.004

7.99,-0.004

7.992,-0.008

7.994,-0.004

7.996,-0.004

7.998,-0.004

8.0,0.0

8.002,-0.004

8.004,-0.012

8.006,-0.004

8.008000000000001,-0.004

8.01,-0.004

8.012,-0.004

8.014,-0.004

8.016,-0.004

8.018,-0.004

8.02,0.0

8.022,-0.004

8.024000000000001,-0.004

8.026,-0.004

8.028,-0.004

8.03,0.0

8.032,0.0

8.034,0.0

8.036,-0.004

8.038,-0.004

8.040000000000001,0.0

8.042,0.0

8.044,-0.004

8.046,0.0

8.048,0.0

8.05,0.0

8.052,0.0

8.054,-0.004

8.056000000000001,-0.004

8.058,-0.004

8.06,0.0

8.062,-0.004

8.064,0.0

8.066,-0.004

8.068,0.0

8.07,0.0

8.072000000000001,-0.004

8.074,0.0

8.076,0.0

8.078,0.0

8.08,0.0

8.082,-0.004

8.084,0.0

8.086,0.0

8.088000000000001,0.0

8.09,-0.004

8.092,-0.004

8.094,-0.004

8.096,0.0

8.098,0.004

8.1,0.0

8.102,-0.004

8.104000000000001,0.0

8.106,0.0

8.108,-0.004

8.11,0.0

8.112,0.004

8.114,0.0

8.116,-0.004

8.118,-0.004

8.120000000000001,0.0

8.122,0.0

8.124,0.0

8.126,0.004

8.128,0.0

8.13,0.0

8.132,0.0

8.134,-0.004

8.136000000000001,0.0

8.138,0.0

8.14,0.0

8.142,0.0

8.144,0.004

8.146,0.0

8.148,0.0

8.15,0.004

8.152000000000001,0.0

8.154,0.0

8.156,0.004

8.158,0.0

8.16,0.004

8.162,0.0

8.164,0.0

8.166,0.0

8.168000000000001,0.0

8.17,0.004

8.172,0.0

8.174,0.004

8.176,0.0

8.178,0.004

8.18,0.004

8.182,0.0

8.184000000000001,0.0

8.186,0.004

8.188,0.004

8.19,0.004

8.192,0.0

8.194,0.004

8.196,0.008

8.198,0.008

8.2,0.004

8.202,0.004

8.204,0.0

8.206,0.004

8.208,0.004

8.21,0.004

8.212,0.004

8.214,0.0

8.216,0.004

8.218,0.008

8.22,0.008

8.222,0.004

8.224,0.004

8.226,0.004

8.228,0.004

8.23,0.004

8.232,0.004

8.234,-0.004

8.236,0.0

8.238,0.004

8.24,0.004

8.242,0.004

8.244,0.008

8.246,0.008

8.248,0.004

8.25,0.004

8.252,0.004

8.254,0.004

8.256,0.008

8.258000000000001,0.008

8.26,0.004

8.262,0.008

8.264,0.008

8.266,0.008

8.268,0.008

8.27,0.004

8.272,0.008

8.274000000000001,0.008

8.276,0.008

8.278,0.008

8.28,0.004

8.282,0.004

8.284,0.004

8.286,0.008

8.288,0.004

8.290000000000001,0.012

8.292,0.004

8.294,0.008

8.296,0.008

8.298,0.008

8.3,0.004

8.302,0.004

8.304,0.008

8.306000000000001,0.008

8.308,0.008

8.31,0.008

8.312,0.012

8.314,0.008

8.316,0.008

8.318,0.008

8.32,0.012

8.322000000000001,0.008

8.324,0.008

8.326,0.008

8.328,0.008

8.33,0.004

8.332,0.008

8.334,0.008

8.336,0.008

8.338000000000001,0.008

8.34,0.012

8.342,0.008

8.344,0.008

8.346,0.008

8.348,0.016

8.35,0.004

8.352,0.008

8.354000000000001,0.012

8.356,0.008

8.358,0.004

8.36,0.008

8.362,0.012

8.364,0.008

8.366,0.012

8.368,0.012

8.370000000000001,0.008

8.372,0.012

8.374,0.008

8.376,0.008

8.378,0.012

8.38,0.008

8.382,0.008

8.384,0.012

8.386000000000001,0.012

8.388,0.012

8.39,0.016

8.392,0.012

8.394,0.008

8.396,0.012

8.398,0.012

8.4,0.012

8.402000000000001,0.008

8.404,0.012

8.406,0.016

8.408,0.012

8.41,0.008

8.412,0.016

8.414,0.012

8.416,0.008

8.418000000000001,0.016

8.42,0.016

8.422,0.012

8.424,0.012

8.426,0.012

8.428,0.012

8.43,0.016

8.432,0.016

8.434000000000001,0.02

8.436,0.016

8.438,0.016

8.44,0.016

8.442,0.016

8.444,0.012

8.446,0.016

8.448,0.012

8.45,0.008

8.452,0.012

8.454,0.016

8.456,0.012

8.458,0.016

8.46,0.016

8.462,0.012

8.464,0.012

8.466,0.012

8.468,0.008

8.47,0.012

8.472,0.012

8.474,0.016

8.476,0.012

8.478,0.012

8.48,0.012

8.482,0.02

8.484,0.012

8.486,0.016

8.488,0.016

8.49,0.016

8.492,0.012

8.494,0.016

8.496,0.02

8.498,0.016

8.5,0.02

8.502,0.012

8.504,0.012

8.506,0.016

8.508000000000001,0.016

8.51,0.02

8.512,0.016

8.514,0.02

8.516,0.02

8.518,0.016

8.52,0.012

8.522,0.016

8.524000000000001,0.02

8.526,0.016

8.528,0.02

8.53,0.016

8.532,0.02

8.534,0.016

8.536,0.02

8.538,0.016

8.540000000000001,0.016

8.542,0.016

8.544,0.02

8.546,0.016

8.548,0.02

8.55,0.016

8.552,0.02

8.554,0.016

8.556000000000001,0.012

8.558,0.02

8.56,0.02

8.562,0.012

8.564,0.016

8.566,0.016

8.568,0.016

8.57,0.02

8.572000000000001,0.024

8.574,0.02

8.576,0.02

8.578,0.016

8.58,0.016

8.582,0.02

8.584,0.02

8.586,0.016

8.588000000000001,0.02

8.59,0.02

8.592,0.016

8.594,0.02

8.596,0.02

8.598,0.02

8.6,0.02

8.602,0.02

8.604000000000001,0.02

8.606,0.02

8.608,0.016

8.61,0.02

8.612,0.02

8.614,0.02

8.616,0.024

8.618,0.024

8.620000000000001,0.02

8.622,0.02

8.624,0.016

8.626,0.02

8.628,0.024

8.63,0.02

8.632,0.02

8.634,0.02

8.636000000000001,0.02

8.638,0.02

8.64,0.02

8.642,0.024

8.644,0.02

8.646,0.024

8.648,0.012

8.65,0.024

8.652000000000001,0.024

8.654,0.024

8.656,0.024

8.658,0.024

8.66,0.02

8.662,0.024

8.664,0.024

8.666,0.024

8.668000000000001,0.024

8.67,0.024

8.672,0.024

8.674,0.024

8.676,0.02

8.678,0.024

8.68,0.02

8.682,0.024

8.684000000000001,0.024

8.686,0.02

8.688,0.02

8.69,0.02

8.692,0.024

8.694,0.024

8.696,0.02

8.698,0.02

8.700000000000001,0.028

8.702,0.028

8.704,0.028

8.706,0.024

8.708,0.02

8.71,0.02

8.712,0.024

8.714,0.024

8.716,0.028

8.718,0.024

8.72,0.024

8.722,0.028

8.724,0.024

8.726,0.028

8.728,0.02

8.73,0.024

8.732,0.024

8.734,0.02

8.736,0.028

8.738,0.024

8.74,0.032

8.742,0.028

8.744,0.028

8.746,0.028

8.748,0.028

8.75,0.028

8.752,0.024

8.754,0.024

8.756,0.028

8.758000000000001,0.028

8.76,0.024

8.762,0.028

8.764,0.024

8.766,0.028

8.768,0.028

8.77,0.024

8.772,0.032

8.774000000000001,0.028

8.776,0.028

8.778,0.024

8.78,0.028

8.782,0.028

8.784,0.032

8.786,0.024

8.788,0.028

8.790000000000001,0.028

8.792,0.028

8.794,0.028

8.796,0.028

8.798,0.028

8.8,0.028

8.802,0.028

8.804,0.028

8.806000000000001,0.028

8.808,0.028

8.81,0.028

8.812,0.032

8.814,0.032

8.816,0.028

8.818,0.024

8.82,0.028

8.822000000000001,0.032

8.824,0.028

8.826,0.032

8.828,0.028

8.83,0.024

8.832,0.028

8.834,0.028

8.836,0.024

8.838000000000001,0.032

8.84,0.032

8.842,0.032

8.844,0.032

8.846,0.028

8.848,0.028

8.85,0.032

8.852,0.032

8.854000000000001,0.032

8.856,0.032

8.858,0.032

8.86,0.028

8.862,0.032

8.864,0.032

8.866,0.028

8.868,0.032

8.870000000000001,0.032

8.872,0.028

8.874,0.024

8.876,0.032

8.878,0.032

8.88,0.032

8.882,0.028

8.884,0.032

8.886000000000001,0.032

8.888,0.032

8.89,0.032

8.892,0.028

8.894,0.032

8.896,0.028

8.898,0.032

8.9,0.032

8.902000000000001,0.036000000000000004

8.904,0.032

8.906,0.036000000000000004

8.908,0.032

8.91,0.032

8.912,0.032

8.914,0.032

8.916,0.028

8.918000000000001,0.032

8.92,0.032

8.922,0.032

8.924,0.032

8.926,0.032

8.928,0.032

8.93,0.028

8.932,0.032

8.934000000000001,0.036000000000000004

8.936,0.036000000000000004

8.938,0.036000000000000004

8.94,0.036000000000000004

8.942,0.036000000000000004

8.944,0.036000000000000004

8.946,0.04

8.948,0.036000000000000004

8.950000000000001,0.028

8.952,0.036000000000000004

8.954,0.036000000000000004

8.956,0.036000000000000004

8.958,0.032

8.96,0.036000000000000004

8.962,0.032

8.964,0.032

8.966,0.032

8.968,0.036000000000000004

8.97,0.036000000000000004

8.972,0.04

8.974,0.032

8.976,0.032

8.978,0.036000000000000004

8.98,0.036000000000000004

8.982,0.036000000000000004

8.984,0.036000000000000004

8.986,0.036000000000000004

8.988,0.036000000000000004

8.99,0.032

8.992,0.036000000000000004

8.994,0.032

8.996,0.036000000000000004

8.998,0.04

9.0,0.036000000000000004

9.002,0.036000000000000004

9.004,0.036000000000000004

9.006,0.04

9.008000000000001,0.036000000000000004

9.01,0.036000000000000004

9.012,0.036000000000000004

9.014,0.036000000000000004

9.016,0.04

9.018,0.036000000000000004

9.02,0.036000000000000004

9.022,0.036000000000000004

9.024000000000001,0.04

9.026,0.036000000000000004

9.028,0.036000000000000004

9.03,0.04

9.032,0.036000000000000004

9.034,0.036000000000000004

9.036,0.036000000000000004

9.038,0.036000000000000004

9.040000000000001,0.036000000000000004

9.042,0.036000000000000004

9.044,0.036000000000000004

9.046,0.036000000000000004

9.048,0.036000000000000004

9.05,0.036000000000000004

9.052,0.04

9.054,0.04

9.056000000000001,0.036000000000000004

9.058,0.036000000000000004

9.06,0.036000000000000004

9.062,0.036000000000000004

9.064,0.036000000000000004

9.066,0.04

9.068,0.036000000000000004

9.07,0.04

9.072000000000001,0.036000000000000004

9.074,0.04

9.076,0.04

9.078,0.04

9.08,0.044

9.082,0.044

9.084,0.04

9.086,0.04

9.088000000000001,0.04

9.09,0.036000000000000004

9.092,0.036000000000000004

9.094,0.036000000000000004

9.096,0.044

9.098,0.04

9.1,0.04

9.102,0.04

9.104000000000001,0.04

9.106,0.04

9.108,0.04

9.11,0.044

9.112,0.044

9.114,0.036000000000000004

9.116,0.036000000000000004

9.118,0.04

9.120000000000001,0.04

9.122,0.04

9.124,0.04

9.126,0.044

9.128,0.04

9.13,0.036000000000000004

9.132,0.04

9.134,0.04

9.136000000000001,0.044

9.138,0.044

9.14,0.044

9.142,0.04

9.144,0.044

9.146,0.044

9.148,0.044

9.15,0.04

9.152000000000001,0.044

9.154,0.044

9.156,0.044

9.158,0.04

9.16,0.04

9.162,0.04

9.164,0.044

9.166,0.04

9.168000000000001,0.044

9.17,0.044

9.172,0.04

9.174,0.044

9.176,0.04

9.178,0.04

9.18,0.044

9.182,0.04

9.184000000000001,0.044

9.186,0.04

9.188,0.044

9.19,0.044

9.192,0.04

9.194,0.044

9.196,0.04

9.198,0.044

9.200000000000001,0.04

9.202,0.04

9.204,0.04

9.206,0.044

9.208,0.044

9.21,0.044

9.212,0.044

9.214,0.048

9.216000000000001,0.044

9.218,0.048

9.22,0.044

9.222,0.044

9.224,0.044

9.226,0.04

9.228,0.04

9.23,0.044

9.232,0.044

9.234,0.048

9.236,0.044

9.238,0.044

9.24,0.048

9.242,0.044

9.244,0.044

9.246,0.048

9.248,0.044

9.25,0.048

9.252,0.052000000000000005

9.254,0.048

9.256,0.048

9.258000000000001,0.044

9.26,0.044

9.262,0.044

9.264,0.052000000000000005

9.266,0.044

9.268,0.052000000000000005

9.27,0.048

9.272,0.044

9.274000000000001,0.048

9.276,0.048

9.278,0.048

9.28,0.048

9.282,0.044

9.284,0.044

9.286,0.048

9.288,0.048

9.290000000000001,0.048

9.292,0.052000000000000005

9.294,0.048

9.296,0.044

9.298,0.048

9.3,0.044

9.302,0.048

9.304,0.048

9.306000000000001,0.052000000000000005

9.308,0.048

9.31,0.048

9.312,0.04

9.314,0.048

9.316,0.048

9.318,0.048

9.32,0.048

9.322000000000001,0.048

9.324,0.052000000000000005

9.326,0.052000000000000005

9.328,0.048

9.33,0.052000000000000005

9.332,0.052000000000000005

9.334,0.048

9.336,0.048

9.338000000000001,0.052000000000000005

9.34,0.052000000000000005

9.342,0.048

9.344,0.052000000000000005

9.346,0.052000000000000005

9.348,0.044

9.35,0.048

9.352,0.048

9.354000000000001,0.048

9.356,0.052000000000000005

9.358,0.052000000000000005

9.36,0.048

9.362,0.048

9.364,0.052000000000000005

9.366,0.052000000000000005

9.368,0.052000000000000005

9.370000000000001,0.048

9.372,0.044

9.374,0.052000000000000005

9.376,0.052000000000000005

9.378,0.048

9.38,0.048

9.382,0.048

9.384,0.052000000000000005

9.386000000000001,0.052000000000000005

9.388,0.052000000000000005

9.39,0.052000000000000005

9.392,0.048

9.394,0.052000000000000005

9.396,0.052000000000000005

9.398,0.052000000000000005

9.4,0.052000000000000005

9.402000000000001,0.048

9.404,0.048

9.406,0.052000000000000005

9.408,0.052000000000000005

9.41,0.052000000000000005

9.412,0.052000000000000005

9.414,0.052000000000000005

9.416,0.056

9.418000000000001,0.052000000000000005

9.42,0.052000000000000005

9.422,0.052000000000000005

9.424,0.056

9.426,0.052000000000000005

9.428,0.052000000000000005

9.43,0.052000000000000005

9.432,0.056

9.434000000000001,0.052000000000000005

9.436,0.052000000000000005

9.438,0.052000000000000005

9.44,0.048

9.442,0.052000000000000005

9.444,0.052000000000000005

9.446,0.052000000000000005

9.448,0.052000000000000005

9.450000000000001,0.052000000000000005

9.452,0.052000000000000005

9.454,0.056

9.456,0.052000000000000005

9.458,0.052000000000000005

9.46,0.048

9.462,0.052000000000000005

9.464,0.052000000000000005

9.466000000000001,0.056

9.468,0.048

9.47,0.052000000000000005

9.472,0.052000000000000005

9.474,0.052000000000000005

9.476,0.052000000000000005

9.478,0.052000000000000005

9.48,0.052000000000000005

9.482,0.052000000000000005

9.484,0.052000000000000005

9.486,0.056

9.488,0.048

9.49,0.052000000000000005

9.492,0.052000000000000005

9.494,0.052000000000000005

9.496,0.056

9.498,0.052000000000000005

9.5,0.052000000000000005

9.502,0.052000000000000005

9.504,0.056

9.506,0.056

9.508000000000001,0.056

9.51,0.048

9.512,0.06

9.514,0.052000000000000005

9.516,0.056

9.518,0.056

9.52,0.056

9.522,0.056

9.524000000000001,0.056

9.526,0.052000000000000005

9.528,0.06

9.53,0.052000000000000005

9.532,0.056

9.534,0.06

9.536,0.056

9.538,0.056

9.540000000000001,0.052000000000000005

9.542,0.056

9.544,0.048

9.546,0.056

9.548,0.052000000000000005

9.55,0.052000000000000005

9.552,0.052000000000000005

9.554,0.052000000000000005

9.556000000000001,0.056

9.558,0.056

9.56,0.056

9.562,0.056

9.564,0.056

9.566,0.06

9.568,0.052000000000000005

9.57,0.056

9.572000000000001,0.056

9.574,0.056

9.576,0.056

9.578,0.06

9.58,0.056

9.582,0.056

9.584,0.056

9.586,0.06

9.588000000000001,0.052000000000000005

9.59,0.056

9.592,0.056

9.594,0.056

9.596,0.056

9.598,0.056

9.6,0.052000000000000005

9.602,0.056

9.604000000000001,0.056

9.606,0.06

9.608,0.06

9.61,0.06

9.612,0.06

9.614,0.056

9.616,0.056

9.618,0.056

9.620000000000001,0.06

9.622,0.056

9.624,0.056

9.626,0.056

9.628,0.056

9.63,0.056

9.632,0.06

9.634,0.064

9.636000000000001,0.06

9.638,0.06

9.64,0.06

9.642,0.06

9.644,0.06

9.646,0.06

9.648,0.064

9.65,0.064

9.652000000000001,0.06

9.654,0.06

9.656,0.056

9.658,0.06

9.66,0.056

9.662,0.06

9.664,0.06

9.666,0.06

9.668000000000001,0.056

9.67,0.06

9.672,0.06

9.674,0.06

9.676,0.056

9.678,0.06

9.68,0.06

9.682,0.06

9.684000000000001,0.064

9.686,0.064

9.688,0.06

9.69,0.06

9.692,0.06

9.694,0.06

9.696,0.06

9.698,0.06

9.700000000000001,0.06

9.702,0.06

9.704,0.06

9.706,0.06

9.708,0.056

9.71,0.064

9.712,0.06

9.714,0.064

9.716000000000001,0.06

9.718,0.06

9.72,0.056

9.722,0.056

9.724,0.06

9.726,0.06

9.728,0.06

9.73,0.06

9.732,0.06

9.734,0.06

9.736,0.06

9.738,0.06

9.74,0.06

9.742,0.056

9.744,0.06

9.746,0.06

9.748,0.064

9.75,0.056

9.752,0.06

9.754,0.064

9.756,0.056

9.758000000000001,0.06

9.76,0.056

9.762,0.064

9.764,0.06

9.766,0.06

9.768,0.06

9.77,0.056

9.772,0.06

9.774000000000001,0.06

9.776,0.06

9.778,0.064

9.78,0.056

9.782,0.06

9.784,0.056

9.786,0.056

9.788,0.064

9.790000000000001,0.056

9.792,0.064

9.794,0.06

9.796,0.056

9.798,0.056

9.8,0.056

9.802,0.064

9.804,0.06

9.806000000000001,0.064

9.808,0.06

9.81,0.06

9.812,0.06

9.814,0.064

9.816,0.064

9.818,0.06

9.82,0.064

9.822000000000001,0.064

9.824,0.064

9.826,0.06

9.828,0.064

9.83,0.064

9.832,0.064

9.834,0.06

9.836,0.06

9.838000000000001,0.06

9.84,0.064

9.842,0.064

9.844,0.064

9.846,0.064

9.848,0.064

9.85,0.068

9.852,0.064

9.854000000000001,0.06

9.856,0.06

9.858,0.064

9.86,0.068

9.862,0.064

9.864,0.064

9.866,0.06

9.868,0.064

9.870000000000001,0.064

9.872,0.064

9.874,0.068

9.876,0.064

9.878,0.064

9.88,0.064

9.882,0.064

9.884,0.06

9.886000000000001,0.064

9.888,0.068

9.89,0.064

9.892,0.068

9.894,0.068

9.896,0.068

9.898,0.064

9.9,0.064

9.902000000000001,0.068

9.904,0.068

9.906,0.064

9.908,0.064

9.91,0.064

9.912,0.068

9.914,0.064

9.916,0.064

9.918000000000001,0.064

9.92,0.068

9.922,0.064

9.924,0.068

9.926,0.07200000000000001

9.928,0.064

9.93,0.064

9.932,0.068

9.934000000000001,0.068

9.936,0.064

9.938,0.064

9.94,0.064

9.942,0.068

9.944,0.068

9.946,0.068

9.948,0.064

9.950000000000001,0.064

9.952,0.068

9.954,0.064

9.956,0.068

9.958,0.064

9.96,0.064

9.962,0.068

9.964,0.064

9.966000000000001,0.064

9.968,0.064

9.97,0.068

9.972,0.064

9.974,0.064

9.976,0.068

9.978,0.064

9.98,0.068

9.982000000000001,0.068

9.984,0.068

9.986,0.064

9.988,0.068

9.99,0.068

9.992,0.064

9.994,0.064

9.996,0.064

9.998,0.068

10.0,0.068

10.002,0.068

10.004,0.068

10.006,0.068

10.008000000000001,0.068

10.01,0.064

10.012,0.064

10.014,0.068

10.016,0.064

10.018,0.068

10.02,0.068

10.022,0.068

10.024000000000001,0.07200000000000001

10.026,0.068

10.028,0.068

10.03,0.068

10.032,0.068

10.034,0.064

10.036,0.068

10.038,0.068

10.040000000000001,0.068

10.042,0.068

10.044,0.068

10.046,0.068

10.048,0.068

10.05,0.07200000000000001

10.052,0.068

10.054,0.068

10.056000000000001,0.07200000000000001

10.058,0.064

10.06,0.068

10.062,0.064

10.064,0.068

10.066,0.068

10.068,0.064

10.07,0.068

10.072000000000001,0.068

10.074,0.064

10.076,0.064

10.078,0.068

10.08,0.068

10.082,0.068

10.084,0.068

10.086,0.068

10.088000000000001,0.068

10.09,0.068

10.092,0.068

10.094,0.07200000000000001

10.096,0.068

10.098,0.064

10.1,0.068

10.102,0.07200000000000001

10.104000000000001,0.068

10.106,0.07200000000000001

10.108,0.064

10.11,0.068

10.112,0.068

10.114,0.064

10.116,0.068

10.118,0.068

10.120000000000001,0.068

10.122,0.07200000000000001

10.124,0.068

10.126,0.07200000000000001

10.128,0.068

10.13,0.068

10.132,0.07200000000000001

10.134,0.068

10.136000000000001,0.07200000000000001

10.138,0.064

10.14,0.064

10.142,0.068

10.144,0.07200000000000001

10.146,0.068

10.148,0.068

10.15,0.07200000000000001

10.152000000000001,0.068

10.154,0.076

10.156,0.07200000000000001

10.158,0.07200000000000001

10.16,0.07200000000000001

10.162,0.068

10.164,0.068

10.166,0.07200000000000001

10.168000000000001,0.068

10.17,0.068

10.172,0.07200000000000001

10.174,0.068

10.176,0.068

10.178,0.07200000000000001

10.18,0.07200000000000001

10.182,0.068

10.184000000000001,0.068

10.186,0.07200000000000001

10.188,0.068

10.19,0.07200000000000001

10.192,0.07200000000000001

10.194,0.068

10.196,0.068

10.198,0.068

10.200000000000001,0.068

10.202,0.076

10.204,0.07200000000000001

10.206,0.07200000000000001

10.208,0.068

10.21,0.07200000000000001

10.212,0.07200000000000001

10.214,0.07200000000000001

10.216000000000001,0.07200000000000001

10.218,0.07200000000000001

10.22,0.07200000000000001

10.222,0.064

10.224,0.07200000000000001

10.226,0.07200000000000001

10.228,0.068

10.23,0.068

10.232000000000001,0.068

10.234,0.07200000000000001

10.236,0.068

10.238,0.068

10.24,0.07200000000000001

10.242,0.07200000000000001

10.244,0.07200000000000001

10.246,0.068

10.248,0.076

10.25,0.07200000000000001

10.252,0.068

10.254,0.068

10.256,0.07200000000000001

10.258000000000001,0.07200000000000001

10.26,0.068

10.262,0.068

10.264,0.07200000000000001

10.266,0.076

10.268,0.07200000000000001

10.27,0.07200000000000001

10.272,0.068

10.274000000000001,0.07200000000000001

10.276,0.068

10.278,0.07200000000000001

10.28,0.068

10.282,0.07200000000000001

10.284,0.07200000000000001

10.286,0.07200000000000001

10.288,0.07200000000000001

10.290000000000001,0.07200000000000001

10.292,0.076

10.294,0.07200000000000001

10.296,0.076

10.298,0.076

10.3,0.07200000000000001

10.302,0.07200000000000001

10.304,0.068

10.306000000000001,0.07200000000000001

10.308,0.076

10.31,0.068

10.312,0.07200000000000001

10.314,0.07200000000000001

10.316,0.07200000000000001

10.318,0.07200000000000001

10.32,0.07200000000000001

10.322000000000001,0.07200000000000001

10.324,0.076

10.326,0.068

10.328,0.076

10.33,0.076

10.332,0.07200000000000001

10.334,0.076

10.336,0.068

10.338000000000001,0.07200000000000001

10.34,0.07200000000000001

10.342,0.07200000000000001

10.344,0.07200000000000001

10.346,0.07200000000000001

10.348,0.068

10.35,0.07200000000000001

10.352,0.07200000000000001

10.354000000000001,0.07200000000000001

10.356,0.07200000000000001

10.358,0.068

10.36,0.07200000000000001

10.362,0.07200000000000001

10.364,0.07200000000000001

10.366,0.07200000000000001

10.368,0.076

10.370000000000001,0.07200000000000001

10.372,0.07200000000000001

10.374,0.07200000000000001

10.376,0.07200000000000001

10.378,0.07200000000000001

10.38,0.07200000000000001

10.382,0.07200000000000001

10.384,0.07200000000000001

10.386000000000001,0.07200000000000001

10.388,0.07200000000000001

10.39,0.07200000000000001

10.392,0.07200000000000001

10.394,0.07200000000000001

10.396,0.07200000000000001

10.398,0.07200000000000001

10.4,0.076

10.402000000000001,0.076

10.404,0.07200000000000001

10.406,0.076

10.408,0.076

10.41,0.076

10.412,0.07200000000000001

10.414,0.07200000000000001

10.416,0.07200000000000001

10.418000000000001,0.07200000000000001

10.42,0.076

10.422,0.076

10.424,0.07200000000000001

10.426,0.076

10.428,0.07200000000000001

10.43,0.076

10.432,0.07200000000000001

10.434000000000001,0.07200000000000001

10.436,0.07200000000000001

10.438,0.07200000000000001

10.44,0.076

10.442,0.068

10.444,0.07200000000000001

10.446,0.07200000000000001

10.448,0.07200000000000001

10.450000000000001,0.07200000000000001

10.452,0.076

10.454,0.076

10.456,0.07200000000000001

10.458,0.07200000000000001

10.46,0.068

10.462,0.076

10.464,0.07200000000000001

10.466000000000001,0.07200000000000001

10.468,0.076

10.47,0.076

10.472,0.076

10.474,0.07200000000000001

10.476,0.07200000000000001

10.478,0.07200000000000001

10.48,0.07200000000000001

10.482000000000001,0.07200000000000001

10.484,0.07200000000000001

10.486,0.08

10.488,0.076

10.49,0.07200000000000001

10.492,0.07200000000000001

10.494,0.08

10.496,0.068

10.498,0.07200000000000001

10.5,0.07200000000000001

10.502,0.07200000000000001

10.504,0.076

10.506,0.07200000000000001

10.508000000000001,0.07200000000000001

10.51,0.07200000000000001

10.512,0.07200000000000001

10.514,0.076

10.516,0.07200000000000001

10.518,0.076

10.52,0.076

10.522,0.076

10.524000000000001,0.08

10.526,0.076

10.528,0.076

10.53,0.076

10.532,0.076

10.534,0.07200000000000001

10.536,0.07200000000000001

10.538,0.07200000000000001

10.540000000000001,0.07200000000000001

10.542,0.07200000000000001

10.544,0.07200000000000001

10.546,0.076

10.548,0.076

10.55,0.076

10.552,0.076

10.554,0.08

10.556000000000001,0.076

10.558,0.07200000000000001

10.56,0.07200000000000001

10.562,0.076

10.564,0.076

10.566,0.07200000000000001

10.568,0.07200000000000001

10.57,0.076

10.572000000000001,0.07200000000000001

10.574,0.07200000000000001

10.576,0.076

10.578,0.076

10.58,0.076

10.582,0.07200000000000001

10.584,0.076

10.586,0.076

10.588000000000001,0.07200000000000001

10.59,0.07200000000000001

10.592,0.07200000000000001

10.594,0.07200000000000001

10.596,0.076

10.598,0.08

10.6,0.076

10.602,0.076

10.604000000000001,0.07200000000000001

10.606,0.076

10.608,0.07200000000000001

10.61,0.07200000000000001

10.612,0.076

10.614,0.076

10.616,0.076

10.618,0.076

10.620000000000001,0.07200000000000001

10.622,0.07200000000000001

10.624,0.076

10.626,0.076

10.628,0.07200000000000001

10.63,0.076

10.632,0.076

10.634,0.076

10.636000000000001,0.076

10.638,0.076

10.64,0.076

10.642,0.07200000000000001

10.644,0.076

10.646,0.07200000000000001

10.648,0.076

10.65,0.07200000000000001

10.652000000000001,0.07200000000000001

10.654,0.07200000000000001

10.656,0.07200000000000001

10.658,0.07200000000000001

10.66,0.076

10.662,0.076

10.664,0.076

10.666,0.076

10.668000000000001,0.08

10.67,0.076

10.672,0.08

10.674,0.08

10.676,0.07200000000000001

10.678,0.076

10.68,0.07200000000000001

10.682,0.076

10.684000000000001,0.076

10.686,0.076

10.688,0.07200000000000001

10.69,0.07200000000000001

10.692,0.076

10.694,0.07200000000000001

10.696,0.076

10.698,0.076

10.700000000000001,0.076

10.702,0.07200000000000001

10.704,0.07200000000000001

10.706,0.07200000000000001

10.708,0.08

10.71,0.076

10.712,0.07200000000000001

10.714,0.076

10.716000000000001,0.08

10.718,0.076

10.72,0.07200000000000001

10.722,0.076

10.724,0.076

10.726,0.07200000000000001

10.728,0.076

10.73,0.076

10.732000000000001,0.068

10.734,0.07200000000000001

10.736,0.076

10.738,0.076

10.74,0.076

10.742,0.08

10.744,0.07200000000000001

10.746,0.07200000000000001

10.748000000000001,0.08

10.75,0.076

10.752,0.07200000000000001

10.754,0.076

10.756,0.076

10.758000000000001,0.07200000000000001

10.76,0.076

10.762,0.076

10.764,0.076

10.766,0.08

10.768,0.076

10.77,0.07200000000000001

10.772,0.076

10.774000000000001,0.076

10.776,0.08

10.778,0.076

10.78,0.076

10.782,0.076

10.784,0.076

10.786,0.076

10.788,0.08

10.790000000000001,0.08

10.792,0.076

10.794,0.07200000000000001

10.796,0.076

10.798,0.076

10.8,0.076

10.802,0.07200000000000001

10.804,0.076

10.806000000000001,0.076

10.808,0.076

10.81,0.076

10.812,0.076

10.814,0.07200000000000001

10.816,0.07200000000000001

10.818,0.076

10.82,0.076

10.822000000000001,0.076

10.824,0.076

10.826,0.076

10.828,0.07200000000000001

10.83,0.08

10.832,0.076

10.834,0.07200000000000001

10.836,0.084

10.838000000000001,0.07200000000000001

10.84,0.076

10.842,0.076

10.844,0.07200000000000001

10.846,0.07200000000000001

10.848,0.076

10.85,0.08

10.852,0.08

10.854000000000001,0.07200000000000001

10.856,0.07200000000000001

10.858,0.076

10.86,0.076

10.862,0.076

10.864,0.076

10.866,0.07200000000000001

10.868,0.076

10.870000000000001,0.08

10.872,0.076

10.874,0.07200000000000001

10.876,0.076

10.878,0.076

10.88,0.076

10.882,0.076

10.884,0.076

10.886000000000001,0.076

10.888,0.076

10.89,0.076

10.892,0.076

10.894,0.076

10.896,0.076

10.898,0.08

10.9,0.076

10.902000000000001,0.076

10.904,0.076

10.906,0.07200000000000001

10.908,0.076

10.91,0.076

10.912,0.076

10.914,0.076

10.916,0.076

10.918000000000001,0.07200000000000001

10.92,0.076

10.922,0.076

10.924,0.08

10.926,0.07200000000000001

10.928,0.076

10.93,0.07200000000000001

10.932,0.07200000000000001

10.934000000000001,0.076

10.936,0.076

10.938,0.076

10.94,0.076

10.942,0.076

10.944,0.07200000000000001

10.946,0.07200000000000001

10.948,0.076

10.950000000000001,0.07200000000000001

10.952,0.07200000000000001

10.954,0.076

10.956,0.07200000000000001

10.958,0.076

10.96,0.07200000000000001

10.962,0.076

10.964,0.076

10.966000000000001,0.076

10.968,0.07200000000000001

10.97,0.07200000000000001

10.972,0.07200000000000001

10.974,0.076

10.976,0.076

10.978,0.076

10.98,0.08

10.982000000000001,0.07200000000000001

10.984,0.076

10.986,0.07200000000000001

10.988,0.076

10.99,0.076

10.992,0.076

10.994,0.076

10.996,0.08

10.998000000000001,0.076

11.0,0.07200000000000001

11.002,0.076

11.004,0.076

11.006,0.076

11.008000000000001,0.076

11.01,0.07200000000000001

11.012,0.07200000000000001

11.014,0.07200000000000001

11.016,0.076

11.018,0.07200000000000001

11.02,0.076

11.022,0.07200000000000001

11.024000000000001,0.07200000000000001

11.026,0.08

11.028,0.07200000000000001

11.03,0.076

11.032,0.07200000000000001

11.034,0.08

11.036,0.076

11.038,0.076

11.040000000000001,0.076

11.042,0.076

11.044,0.07200000000000001

11.046,0.076

11.048,0.076

11.05,0.076

11.052,0.07200000000000001

11.054,0.07200000000000001

11.056000000000001,0.07200000000000001

11.058,0.076

11.06,0.076

11.062,0.08

11.064,0.07200000000000001

11.066,0.08

11.068,0.076

11.07,0.07200000000000001

11.072000000000001,0.07200000000000001

11.074,0.076

11.076,0.076

11.078,0.07200000000000001

11.08,0.076

11.082,0.076

11.084,0.07200000000000001

11.086,0.07200000000000001

11.088000000000001,0.076

11.09,0.07200000000000001

11.092,0.076

11.094,0.068

11.096,0.076

11.098,0.07200000000000001

11.1,0.076

11.102,0.076

11.104000000000001,0.076

11.106,0.068

11.108,0.07200000000000001

11.11,0.076

11.112,0.07200000000000001

11.114,0.076

11.116,0.07200000000000001

11.118,0.07200000000000001

11.120000000000001,0.076

11.122,0.076

11.124,0.07200000000000001

11.126,0.07200000000000001

11.128,0.076

11.13,0.07200000000000001

11.132,0.07200000000000001

11.134,0.07200000000000001

11.136000000000001,0.07200000000000001

11.138,0.07200000000000001

11.14,0.076

11.142,0.076

11.144,0.08

11.146,0.07200000000000001

11.148,0.076

11.15,0.076

11.152000000000001,0.076

11.154,0.07200000000000001

11.156,0.076

11.158,0.07200000000000001

11.16,0.076

11.162,0.076

11.164,0.07200000000000001

11.166,0.07200000000000001

11.168000000000001,0.076

11.17,0.07200000000000001

11.172,0.07200000000000001

11.174,0.076

11.176,0.076

11.178,0.076

11.18,0.076

11.182,0.076

11.184000000000001,0.07200000000000001

11.186,0.076

11.188,0.068

11.19,0.07200000000000001

11.192,0.076

11.194,0.076

11.196,0.07200000000000001

11.198,0.076

11.200000000000001,0.07200000000000001

11.202,0.076

11.204,0.07200000000000001

11.206,0.076

11.208,0.076

11.21,0.076

11.212,0.076

11.214,0.07200000000000001

11.216000000000001,0.07200000000000001

11.218,0.07200000000000001

11.22,0.076

11.222,0.076

11.224,0.07200000000000001

11.226,0.07200000000000001

11.228,0.08

11.23,0.07200000000000001

11.232000000000001,0.076

11.234,0.07200000000000001

11.236,0.07200000000000001

11.238,0.076

11.24,0.07200000000000001

11.242,0.068

11.244,0.07200000000000001

11.246,0.07200000000000001

11.248000000000001,0.07200000000000001

11.25,0.07200000000000001

11.252,0.076

11.254,0.076

11.256,0.07200000000000001

11.258000000000001,0.08

11.26,0.07200000000000001

11.262,0.07200000000000001

11.264,0.076

11.266,0.07200000000000001

11.268,0.076

11.27,0.07200000000000001

11.272,0.07200000000000001

11.274000000000001,0.07200000000000001

11.276,0.076

11.278,0.076

11.28,0.07200000000000001

11.282,0.07200000000000001

11.284,0.07200000000000001

11.286,0.07200000000000001

11.288,0.07200000000000001

11.290000000000001,0.07200000000000001

11.292,0.07200000000000001

11.294,0.076

11.296,0.07200000000000001

11.298,0.07200000000000001

11.3,0.076

11.302,0.07200000000000001

11.304,0.07200000000000001

11.306000000000001,0.07200000000000001

11.308,0.07200000000000001

11.31,0.076

11.312,0.07200000000000001

11.314,0.076

11.316,0.07200000000000001

11.318,0.068

11.32,0.068

11.322000000000001,0.07200000000000001

11.324,0.076

11.326,0.07200000000000001

11.328,0.07200000000000001

11.33,0.07200000000000001

11.332,0.07200000000000001

11.334,0.076

11.336,0.07200000000000001

11.338000000000001,0.076

11.34,0.07200000000000001

11.342,0.07200000000000001

11.344,0.068

11.346,0.07200000000000001

11.348,0.076

11.35,0.07200000000000001

11.352,0.068

11.354000000000001,0.076

11.356,0.07200000000000001

11.358,0.076

11.36,0.076

11.362,0.07200000000000001

11.364,0.07200000000000001

11.366,0.07200000000000001

11.368,0.07200000000000001

11.370000000000001,0.068

11.372,0.07200000000000001

11.374,0.068

11.376,0.07200000000000001

11.378,0.07200000000000001

11.38,0.07200000000000001

11.382,0.068

11.384,0.07200000000000001

11.386000000000001,0.068

11.388,0.07200000000000001

11.39,0.07200000000000001

11.392,0.07200000000000001

11.394,0.07200000000000001

11.396,0.07200000000000001

11.398,0.07200000000000001

11.4,0.076

11.402000000000001,0.07200000000000001

11.404,0.07200000000000001

11.406,0.076

11.408,0.076

11.41,0.07200000000000001

11.412,0.07200000000000001

11.414,0.07200000000000001

11.416,0.07200000000000001

11.418000000000001,0.07200000000000001

11.42,0.068

11.422,0.07200000000000001

11.424,0.07200000000000001

11.426,0.07200000000000001

11.428,0.07200000000000001

11.43,0.07200000000000001

11.432,0.07200000000000001

11.434000000000001,0.07200000000000001

11.436,0.07200000000000001

11.438,0.068

11.44,0.07200000000000001

11.442,0.07200000000000001

11.444,0.07200000000000001

11.446,0.07200000000000001

11.448,0.07200000000000001

11.450000000000001,0.076

11.452,0.07200000000000001

11.454,0.068

11.456,0.07200000000000001

11.458,0.068

11.46,0.07200000000000001

11.462,0.07200000000000001

11.464,0.07200000000000001

11.466000000000001,0.07200000000000001

11.468,0.07200000000000001

11.47,0.068

11.472,0.07200000000000001

11.474,0.07200000000000001

11.476,0.07200000000000001

11.478,0.076

11.48,0.07200000000000001

11.482000000000001,0.07200000000000001

11.484,0.07200000000000001

11.486,0.07200000000000001

11.488,0.07200000000000001

11.49,0.068

11.492,0.07200000000000001

11.494,0.07200000000000001

11.496,0.068

11.498000000000001,0.068

11.5,0.07200000000000001

11.502,0.068

11.504,0.068

11.506,0.068

11.508000000000001,0.07200000000000001

11.51,0.068

11.512,0.068

11.514000000000001,0.068

11.516,0.07200000000000001

11.518,0.07200000000000001

11.52,0.068

11.522,0.07200000000000001

11.524000000000001,0.07200000000000001

11.526,0.068

11.528,0.07200000000000001

11.53,0.07200000000000001

11.532,0.07200000000000001

11.534,0.07200000000000001

11.536,0.068

11.538,0.068

11.540000000000001,0.07200000000000001

11.542,0.07200000000000001

11.544,0.068

11.546,0.068

11.548,0.07200000000000001

11.55,0.068

11.552,0.07200000000000001

11.554,0.07200000000000001

11.556000000000001,0.068

11.558,0.068

11.56,0.07200000000000001

11.562,0.068

11.564,0.07200000000000001

11.566,0.07200000000000001

11.568,0.07200000000000001

11.57,0.068

11.572000000000001,0.07200000000000001

11.574,0.068

11.576,0.068

11.578,0.07200000000000001

11.58,0.068

11.582,0.068

11.584,0.068

11.586,0.07200000000000001

11.588000000000001,0.07200000000000001

11.59,0.076

11.592,0.068

11.594,0.068

11.596,0.068

11.598,0.068

11.6,0.068

11.602,0.07200000000000001

11.604000000000001,0.068

11.606,0.07200000000000001

11.608,0.07200000000000001

11.61,0.07200000000000001

11.612,0.07200000000000001

11.614,0.07200000000000001

11.616,0.068

11.618,0.068

11.620000000000001,0.068

11.622,0.068

11.624,0.068

11.626,0.068

11.628,0.068

11.63,0.07200000000000001

11.632,0.064

11.634,0.068

11.636000000000001,0.064

11.638,0.064

11.64,0.068

11.642,0.064

11.644,0.068

11.646,0.064

11.648,0.068

11.65,0.064

11.652000000000001,0.068

11.654,0.068

11.656,0.068

11.658,0.068

11.66,0.064

11.662,0.068

11.664,0.064

11.666,0.064

11.668000000000001,0.07200000000000001

11.67,0.068

11.672,0.064

11.674,0.07200000000000001

11.676,0.07200000000000001

11.678,0.068

11.68,0.068

11.682,0.068

11.684000000000001,0.064

11.686,0.068

11.688,0.068

11.69,0.068

11.692,0.068

11.694,0.064

11.696,0.068

11.698,0.064

11.700000000000001,0.068

11.702,0.064

11.704,0.068

11.706,0.068

11.708,0.064

11.71,0.07200000000000001

11.712,0.064

11.714,0.068

11.716000000000001,0.064

11.718,0.068

11.72,0.068

11.722,0.068

11.724,0.064

11.726,0.068

11.728,0.068

11.73,0.068

11.732000000000001,0.068

11.734,0.068

11.736,0.06

11.738,0.064

11.74,0.064

11.742,0.068

11.744,0.064

11.746,0.064

11.748000000000001,0.064

11.75,0.068

11.752,0.068

11.754,0.06

11.756,0.064

11.758000000000001,0.068

11.76,0.064

11.762,0.068

11.764000000000001,0.064

11.766,0.06

11.768,0.06

11.77,0.064

11.772,0.064

11.774000000000001,0.064

11.776,0.064

11.778,0.064

11.78,0.064

11.782,0.064

11.784,0.064

11.786,0.064

11.788,0.068

11.790000000000001,0.064

11.792,0.06

11.794,0.064

11.796,0.064

11.798,0.064

11.8,0.064

11.802,0.068

11.804,0.064

11.806000000000001,0.068

11.808,0.064

11.81,0.064

11.812,0.068

11.814,0.068

11.816,0.064

11.818,0.068

11.82,0.06

11.822000000000001,0.064

11.824,0.064

11.826,0.064

11.828,0.06

11.83,0.064

11.832,0.064

11.834,0.06

11.836,0.06

11.838000000000001,0.064

11.84,0.06

11.842,0.06

11.844,0.06

11.846,0.06

11.848,0.064

11.85,0.06

11.852,0.064

11.854000000000001,0.06

11.856,0.06

11.858,0.06

11.86,0.064

11.862,0.06

11.864,0.06

11.866,0.064

11.868,0.06

11.870000000000001,0.06

11.872,0.064

11.874,0.056

11.876,0.06

11.878,0.06

11.88,0.064

11.882,0.06

11.884,0.064

11.886000000000001,0.056

11.888,0.06

11.89,0.06

11.892,0.06

11.894,0.064

11.896,0.064

11.898,0.06

11.9,0.064

11.902000000000001,0.064

11.904,0.064

11.906,0.064

11.908,0.06

11.91,0.06

11.912,0.06

11.914,0.064

11.916,0.06

11.918000000000001,0.064

11.92,0.06

11.922,0.056

11.924,0.06

11.926,0.06

11.928,0.056

11.93,0.06

11.932,0.06

11.934000000000001,0.06

11.936,0.064

11.938,0.06

11.94,0.056

11.942,0.056

11.944,0.056

11.946,0.056

11.948,0.06

11.950000000000001,0.064

11.952,0.056

11.954,0.056

11.956,0.06

11.958,0.06

11.96,0.06

11.962,0.06

11.964,0.06

11.966000000000001,0.06

11.968,0.06

11.97,0.06

11.972,0.06

11.974,0.064

11.976,0.056

11.978,0.064

11.98,0.056

11.982000000000001,0.056

11.984,0.056

11.986,0.06

11.988,0.06

11.99,0.06

11.992,0.056

11.994,0.06

11.996,0.06

11.998000000000001,0.06

12.0,0.06

12.002,0.06

12.004,0.06

12.006,0.056

12.008000000000001,0.056

12.01,0.06

12.012,0.056

12.014000000000001,0.052000000000000005

12.016,0.06

12.018,0.056

12.02,0.056

12.022,0.056

12.024000000000001,0.06

12.026,0.056

12.028,0.056

12.030000000000001,0.056

12.032,0.056

12.034,0.052000000000000005

12.036,0.06

12.038,0.052000000000000005

12.040000000000001,0.056

12.042,0.056

12.044,0.056

12.046,0.056

12.048,0.056

12.05,0.06

12.052,0.064

12.054,0.06

12.056000000000001,0.06

12.058,0.06

12.06,0.06

12.062,0.056

12.064,0.056

12.066,0.06

12.068,0.06

12.07,0.056

12.072000000000001,0.056

12.074,0.06

12.076,0.056

12.078,0.056

12.08,0.056

12.082,0.06

12.084,0.056

12.086,0.052000000000000005

12.088000000000001,0.056

12.09,0.056

12.092,0.052000000000000005

12.094,0.056

12.096,0.052000000000000005

12.098,0.056

12.1,0.056

12.102,0.052000000000000005

12.104000000000001,0.056

12.106,0.056

12.108,0.052000000000000005

12.11,0.056

12.112,0.056

12.114,0.056

12.116,0.056

12.118,0.052000000000000005

12.120000000000001,0.056

12.122,0.056

12.124,0.052000000000000005

12.126,0.056

12.128,0.056

12.13,0.056

12.132,0.052000000000000005

12.134,0.056

12.136000000000001,0.052000000000000005

12.138,0.052000000000000005

12.14,0.056

12.142,0.056

12.144,0.056

12.146,0.056

12.148,0.056

12.15,0.056

12.152000000000001,0.056

12.154,0.056

12.156,0.052000000000000005

12.158,0.052000000000000005

12.16,0.056

12.162,0.052000000000000005

12.164,0.052000000000000005

12.166,0.056

12.168000000000001,0.052000000000000005

12.17,0.052000000000000005

12.172,0.056

12.174,0.052000000000000005

12.176,0.052000000000000005

12.178,0.052000000000000005

12.18,0.052000000000000005

12.182,0.052000000000000005

12.184000000000001,0.056

12.186,0.056

12.188,0.052000000000000005

12.19,0.052000000000000005

12.192,0.052000000000000005

12.194,0.052000000000000005

12.196,0.052000000000000005

12.198,0.056

12.200000000000001,0.056

12.202,0.052000000000000005

12.204,0.052000000000000005

12.206,0.052000000000000005

12.208,0.052000000000000005

12.21,0.052000000000000005

12.212,0.052000000000000005

12.214,0.052000000000000005

12.216000000000001,0.052000000000000005

12.218,0.052000000000000005

12.22,0.052000000000000005

12.222,0.056

12.224,0.056

12.226,0.052000000000000005

12.228,0.052000000000000005

12.23,0.052000000000000005

12.232000000000001,0.048

12.234,0.056

12.236,0.056

12.238,0.052000000000000005

12.24,0.048

12.242,0.048

12.244,0.056

12.246,0.052000000000000005

12.248000000000001,0.052000000000000005

12.25,0.052000000000000005

12.252,0.052000000000000005

12.254,0.056

12.256,0.052000000000000005

12.258000000000001,0.052000000000000005

12.26,0.044

12.262,0.056

12.264000000000001,0.052000000000000005

12.266,0.052000000000000005

12.268,0.052000000000000005

12.27,0.052000000000000005

12.272,0.052000000000000005

12.274000000000001,0.048

12.276,0.052000000000000005

12.278,0.052000000000000005

12.280000000000001,0.052000000000000005

12.282,0.048

12.284,0.052000000000000005

12.286,0.052000000000000005

12.288,0.052000000000000005

12.290000000000001,0.052000000000000005

12.292,0.048

12.294,0.048

12.296,0.048

12.298,0.044

12.3,0.052000000000000005

12.302,0.052000000000000005

12.304,0.048

12.306000000000001,0.048

12.308,0.052000000000000005

12.31,0.052000000000000005

12.312,0.052000000000000005

12.314,0.052000000000000005

12.316,0.048

12.318,0.048

12.32,0.052000000000000005

12.322000000000001,0.052000000000000005

12.324,0.048

12.326,0.048

12.328,0.048

12.33,0.048

12.332,0.052000000000000005

12.334,0.048

12.336,0.052000000000000005

12.338000000000001,0.052000000000000005

12.34,0.048

12.342,0.04

12.344,0.048

12.346,0.048

12.348,0.048

12.35,0.048

12.352,0.052000000000000005

12.354000000000001,0.048

12.356,0.044

12.358,0.052000000000000005

12.36,0.048

12.362,0.052000000000000005

12.364,0.052000000000000005

12.366,0.052000000000000005

12.368,0.048

12.370000000000001,0.044

12.372,0.048

12.374,0.048

12.376,0.048

12.378,0.044

12.38,0.048

12.382,0.048

12.384,0.048

12.386000000000001,0.048

12.388,0.048

12.39,0.044

12.392,0.048

12.394,0.044

12.396,0.04

12.398,0.044

12.4,0.044

12.402000000000001,0.048

12.404,0.044

12.406,0.048

12.408,0.044

12.41,0.044

12.412,0.048

12.414,0.048

12.416,0.044

12.418000000000001,0.048

12.42,0.044

12.422,0.04

12.424,0.044

12.426,0.044

12.428,0.044

12.43,0.044

12.432,0.052000000000000005

12.434000000000001,0.044

12.436,0.044

12.438,0.048

12.44,0.044

12.442,0.044

12.444,0.048

12.446,0.048

12.448,0.044

12.450000000000001,0.04

12.452,0.044

12.454,0.044

12.456,0.044

12.458,0.044

12.46,0.044

12.462,0.048

12.464,0.044

12.466000000000001,0.044

12.468,0.044

12.47,0.044

12.472,0.04

12.474,0.04

12.476,0.048

12.478,0.044

12.48,0.04

12.482000000000001,0.044

12.484,0.044

12.486,0.04

12.488,0.04

12.49,0.04

12.492,0.044

12.494,0.04

12.496,0.04

12.498000000000001,0.04

12.5,0.04

12.502,0.04

12.504,0.04

12.506,0.04

12.508000000000001,0.048

12.51,0.04

12.512,0.044

12.514000000000001,0.04

12.516,0.036000000000000004

12.518,0.04

12.52,0.04

12.522,0.04

12.524000000000001,0.04

12.526,0.044

12.528,0.04

12.530000000000001,0.04

12.532,0.04

12.534,0.044

12.536,0.044

12.538,0.036000000000000004

12.540000000000001,0.036000000000000004

12.542,0.036000000000000004

12.544,0.04

12.546,0.04

12.548,0.036000000000000004

12.55,0.044

12.552,0.036000000000000004

12.554,0.04

12.556000000000001,0.04

12.558,0.036000000000000004

12.56,0.036000000000000004

12.562,0.04

12.564,0.036000000000000004

12.566,0.04

12.568,0.032

12.57,0.036000000000000004

12.572000000000001,0.036000000000000004

12.574,0.036000000000000004

12.576,0.04

12.578,0.04

12.58,0.036000000000000004

12.582,0.04

12.584,0.036000000000000004

12.586,0.04

12.588000000000001,0.04

12.59,0.04

12.592,0.04

12.594,0.036000000000000004

12.596,0.04

12.598,0.036000000000000004

12.6,0.036000000000000004

12.602,0.04

12.604000000000001,0.04

12.606,0.036000000000000004

12.608,0.036000000000000004

12.61,0.04

12.612,0.036000000000000004

12.614,0.04

12.616,0.04

12.618,0.04

12.620000000000001,0.04

12.622,0.04

12.624,0.04

12.626,0.036000000000000004

12.628,0.036000000000000004

12.63,0.04

12.632,0.036000000000000004

12.634,0.036000000000000004

12.636000000000001,0.036000000000000004

12.638,0.036000000000000004

12.64,0.04

12.642,0.036000000000000004

12.644,0.036000000000000004

12.646,0.036000000000000004

12.648,0.036000000000000004

12.65,0.036000000000000004

12.652000000000001,0.036000000000000004

12.654,0.04

12.656,0.032

12.658,0.036000000000000004

12.66,0.032

12.662,0.04

12.664,0.032

12.666,0.032

12.668000000000001,0.04

12.67,0.032

12.672,0.032

12.674,0.032

12.676,0.036000000000000004

12.678,0.036000000000000004

12.68,0.04

12.682,0.036000000000000004

12.684000000000001,0.032

12.686,0.036000000000000004

12.688,0.036000000000000004

12.69,0.032

12.692,0.036000000000000004

12.694,0.032

12.696,0.032

12.698,0.036000000000000004

12.700000000000001,0.036000000000000004

12.702,0.032

12.704,0.036000000000000004

12.706,0.036000000000000004

12.708,0.032

12.71,0.032

12.712,0.032

12.714,0.032

12.716000000000001,0.036000000000000004

12.718,0.036000000000000004

12.72,0.032

12.722,0.036000000000000004

12.724,0.032

12.726,0.032

12.728,0.036000000000000004

12.73,0.032

12.732000000000001,0.032

12.734,0.032

12.736,0.032

12.738,0.032

12.74,0.032

12.742,0.032

12.744,0.032

12.746,0.032

12.748000000000001,0.036000000000000004

12.75,0.036000000000000004

12.752,0.032

12.754,0.036000000000000004

12.756,0.028

12.758000000000001,0.032

12.76,0.036000000000000004

12.762,0.032

12.764000000000001,0.028

12.766,0.032

12.768,0.032

12.77,0.028

12.772,0.028

12.774000000000001,0.032

12.776,0.032

12.778,0.032

12.780000000000001,0.032

12.782,0.032

12.784,0.032

12.786,0.036000000000000004

12.788,0.032

12.790000000000001,0.032

12.792,0.032

12.794,0.032

12.796000000000001,0.028

12.798,0.028

12.8,0.032

12.802,0.032

12.804,0.032

12.806000000000001,0.028

12.808,0.028

12.81,0.032

12.812,0.028

12.814,0.028

12.816,0.032

12.818,0.032

12.82,0.028

12.822000000000001,0.028

12.824,0.028

12.826,0.028

12.828,0.028

12.83,0.032

12.832,0.028

12.834,0.024

12.836,0.028

12.838000000000001,0.024

12.84,0.028

12.842,0.028

12.844,0.032

12.846,0.028

12.848,0.028

12.85,0.028

12.852,0.028

12.854000000000001,0.028

12.856,0.028

12.858,0.024

12.86,0.032

12.862,0.028

12.864,0.032

12.866,0.028

12.868,0.028

12.870000000000001,0.032

12.872,0.028

12.874,0.032

12.876,0.028

12.878,0.028

12.88,0.028

12.882,0.024

12.884,0.028

12.886000000000001,0.028

12.888,0.024

12.89,0.028

12.892,0.024

12.894,0.028

12.896,0.028

12.898,0.028

12.9,0.024

12.902000000000001,0.028

12.904,0.024

12.906,0.024

12.908,0.028

12.91,0.02

12.912,0.02

12.914,0.028

12.916,0.028

12.918000000000001,0.028

12.92,0.028

12.922,0.024

12.924,0.024

12.926,0.024

12.928,0.02

12.93,0.024

12.932,0.024

12.934000000000001,0.02

12.936,0.02

12.938,0.028

12.94,0.024

12.942,0.024

12.944,0.024

12.946,0.024

12.948,0.024

12.950000000000001,0.028

12.952,0.024

12.954,0.02

12.956,0.02

12.958,0.024

12.96,0.024

12.962,0.024

12.964,0.02

12.966000000000001,0.02

12.968,0.02

12.97,0.024

12.972,0.028

12.974,0.02

12.976,0.02

12.978,0.024

12.98,0.028

12.982000000000001,0.02

12.984,0.024

12.986,0.024

12.988,0.02

12.99,0.02

12.992,0.024

12.994,0.02

12.996,0.02

12.998000000000001,0.024

13.0,0.02

13.002,0.024

13.004,0.02

13.006,0.02

13.008000000000001,0.024

13.01,0.02

13.012,0.02

13.014000000000001,0.024

13.016,0.02

13.018,0.016

13.02,0.024

13.022,0.024

13.024000000000001,0.02

13.026,0.024

13.028,0.016

13.030000000000001,0.024

13.032,0.016

13.034,0.02

13.036,0.02

13.038,0.02

13.040000000000001,0.02

13.042,0.02

13.044,0.016

13.046000000000001,0.024

13.048,0.02

13.05,0.02

13.052,0.016

13.054,0.02

13.056000000000001,0.02

13.058,0.02

13.06,0.02

13.062,0.02

13.064,0.02

13.066,0.02

13.068,0.02

13.07,0.02

13.072000000000001,0.02

13.074,0.02

13.076,0.02

13.078,0.02

13.08,0.016

13.082,0.02

13.084,0.016

13.086,0.016

13.088000000000001,0.02

13.09,0.016

13.092,0.02

13.094,0.02

13.096,0.02

13.098,0.02

13.1,0.02

13.102,0.016

13.104000000000001,0.02

13.106,0.02

13.108,0.016

13.11,0.016

13.112,0.016

13.114,0.016

13.116,0.02

13.118,0.016

13.120000000000001,0.016

13.122,0.02

13.124,0.02

13.126,0.016

13.128,0.016

13.13,0.02

13.132,0.012

13.134,0.012

13.136000000000001,0.02

13.138,0.02

13.14,0.016

13.142,0.02

13.144,0.02

13.146,0.012

13.148,0.012

13.15,0.012

13.152000000000001,0.012

13.154,0.02

13.156,0.02

13.158,0.016

13.16,0.016

13.162,0.016

13.164,0.02

13.166,0.016

13.168000000000001,0.016

13.17,0.016

13.172,0.016

13.174,0.012

13.176,0.016

13.178,0.012

13.18,0.016

13.182,0.016

13.184000000000001,0.016

13.186,0.016

13.188,0.016

13.19,0.012

13.192,0.012

13.194,0.016

13.196,0.016

13.198,0.016

13.200000000000001,0.016

13.202,0.008

13.204,0.016

13.206,0.012

13.208,0.012

13.21,0.012

13.212,0.012

13.214,0.012

13.216000000000001,0.008

13.218,0.012

13.22,0.008

13.222,0.012

13.224,0.012

13.226,0.008

13.228,0.012

13.23,0.012

13.232000000000001,0.012

13.234,0.016

13.236,0.012

13.238,0.016

13.24,0.012

13.242,0.012

13.244,0.012

13.246,0.012

13.248000000000001,0.012

13.25,0.012

13.252,0.012

13.254,0.016

13.256,0.008

13.258000000000001,0.02

13.26,0.012

13.262,0.012

13.264000000000001,0.008

13.266,0.012

13.268,0.012

13.27,0.012

13.272,0.012

13.274000000000001,0.016

13.276,0.016

13.278,0.008

13.280000000000001,0.008

13.282,0.004

13.284,0.012

13.286,0.012

13.288,0.008

13.290000000000001,0.012

13.292,0.012

13.294,0.012

13.296000000000001,0.008

13.298,0.012

13.3,0.008

13.302,0.008

13.304,0.012

13.306000000000001,0.004

13.308,0.008

13.31,0.012

13.312000000000001,0.004

13.314,0.012

13.316,0.008

13.318,0.008

13.32,0.008

13.322000000000001,0.008

13.324,0.008

13.326,0.008

13.328,0.008

13.33,0.008

13.332,0.008

13.334,0.012

13.336,0.008

13.338000000000001,0.012

13.34,0.008

13.342,0.008

13.344,0.008

13.346,0.008

13.348,0.008

13.35,0.004

13.352,0.008

13.354000000000001,0.004

13.356,0.008

13.358,0.008

13.36,0.008

13.362,0.008

13.364,0.004

13.366,0.008

13.368,0.008

13.370000000000001,0.012

13.372,0.008

13.374,0.004

13.376,0.012

13.378,0.004

13.38,0.008

13.382,0.008

13.384,0.004

13.386000000000001,0.008

13.388,0.004

13.39,0.004

13.392,0.008

13.394,0.004

13.396,0.008

13.398,0.008

13.4,0.008

13.402000000000001,0.004

13.404,0.008

13.406,0.008

13.408,0.004

13.41,0.008

13.412,0.004

13.414,0.004

13.416,0.008

13.418000000000001,0.004

13.42,0.004

13.422,0.004

13.424,0.004

13.426,0.004

13.428,0.004

13.43,0.004

13.432,0.004

13.434000000000001,0.008

13.436,0.008

13.438,0.008

13.44,0.0

13.442,0.004

13.444,0.004

13.446,0.004

13.448,0.004

13.450000000000001,0.004

13.452,0.0

13.454,0.0

13.456,0.004

13.458,0.004

13.46,0.004

13.462,0.004

13.464,0.004

13.466000000000001,0.008

13.468,0.008

13.47,0.0

13.472,0.004

13.474,0.004

13.476,0.0

13.478,0.004

13.48,0.0

13.482000000000001,0.0

13.484,0.004

13.486,0.0

13.488,0.004

13.49,0.004

13.492,0.004

13.494,0.0

13.496,0.004

13.498000000000001,0.008

13.5,0.0

13.502,0.004

13.504,0.0

13.506,0.0

13.508000000000001,0.004

13.51,0.0

13.512,0.004

13.514000000000001,0.004

13.516,0.0

13.518,0.0

13.52,0.0

13.522,0.0

13.524000000000001,-0.004

13.526,0.0

13.528,-0.004

13.530000000000001,-0.004

13.532,0.0

13.534,-0.004

13.536,-0.004

13.538,-0.004

13.540000000000001,0.0

13.542,0.0

13.544,0.0

13.546000000000001,-0.004

13.548,-0.004

13.55,-0.004

13.552,0.0

13.554,0.0

13.556000000000001,0.0

13.558,-0.008

13.56,-0.004

13.562000000000001,0.0

13.564,0.0

13.566,-0.004

13.568,0.0

13.57,0.0

13.572000000000001,0.0

13.574,0.0

13.576,0.0

13.578,0.0

13.58,-0.004

13.582,0.0

13.584,0.0

13.586,0.0

13.588000000000001,0.0

13.59,0.0

13.592,-0.004

13.594,0.0

13.596,-0.004

13.598,-0.004

13.6,-0.004

13.602,0.0

13.604000000000001,-0.004

13.606,-0.004

13.608,0.0

13.61,0.0

13.612,-0.004

13.614,-0.004

13.616,-0.004

13.618,-0.004

13.620000000000001,-0.004

13.622,-0.004

13.624,0.0

13.626,-0.008

13.628,-0.008

13.63,-0.004

13.632,0.0

13.634,-0.004

13.636000000000001,-0.004

13.638,-0.008

13.64,-0.004

13.642,-0.004

13.644,-0.008

13.646,-0.004

13.648,-0.004

13.65,-0.004

13.652000000000001,-0.004

13.654,-0.004

13.656,0.004

13.658,-0.004

13.66,-0.004

13.662,-0.008

13.664,-0.004

13.666,-0.004

13.668000000000001,0.0

13.67,-0.004

13.672,-0.008

13.674,-0.008

13.676,-0.008

13.678,-0.004

13.68,-0.008

13.682,-0.004

13.684000000000001,-0.008

13.686,-0.004

13.688,-0.008

13.69,-0.004

13.692,-0.008

13.694,-0.004

13.696,-0.008

13.698,-0.008

13.700000000000001,-0.008

13.702,-0.008

13.704,-0.008

13.706,0.0

13.708,-0.008

13.71,-0.008

13.712,-0.008

13.714,-0.004

13.716000000000001,-0.004

13.718,-0.008

13.72,-0.008

13.722,-0.004

13.724,-0.008

13.726,-0.008

13.728,-0.008

13.73,-0.008

13.732000000000001,-0.008

13.734,-0.004

13.736,-0.008

13.738,-0.008

13.74,-0.008

13.742,-0.008

13.744,-0.008

13.746,-0.008

13.748000000000001,-0.008

13.75,-0.008

13.752,-0.008

13.754,-0.008

13.756,-0.008

13.758000000000001,-0.008

13.76,-0.012

13.762,-0.008

13.764000000000001,-0.008

13.766,-0.008

13.768,-0.008

13.77,-0.004

13.772,-0.008

13.774000000000001,-0.008

13.776,-0.008

13.778,-0.004

13.780000000000001,-0.008

13.782,-0.008

13.784,-0.008

13.786,-0.012

13.788,-0.008

13.790000000000001,-0.008

13.792,-0.008

13.794,-0.008

13.796000000000001,-0.012

13.798,-0.008

13.8,-0.008

13.802,-0.012

13.804,-0.008

13.806000000000001,-0.008

13.808,-0.008

13.81,-0.008

13.812000000000001,-0.008

13.814,-0.016

13.816,-0.012

13.818,-0.008

13.82,-0.008

13.822000000000001,-0.016

13.824,-0.008

13.826,-0.012

13.828,-0.008

13.83,-0.012

13.832,-0.004

13.834,-0.008

13.836,-0.012

13.838000000000001,-0.012

13.84,-0.008

13.842,-0.008

13.844,-0.012

13.846,-0.012

13.848,-0.008

13.85,-0.008

13.852,-0.008

13.854000000000001,-0.012

13.856,-0.012

13.858,-0.008

13.86,-0.008

13.862,-0.008

13.864,-0.008

13.866,-0.012

13.868,-0.008

13.870000000000001,-0.016

13.872,-0.012

13.874,-0.012

13.876,-0.016

13.878,-0.012

13.88,-0.012

13.882,-0.016

13.884,-0.008

13.886000000000001,-0.012

13.888,-0.012

13.89,-0.012

13.892,-0.016

13.894,-0.012

13.896,-0.012

13.898,-0.012

13.9,-0.012

13.902000000000001,-0.016

13.904,-0.012

13.906,-0.012

13.908,-0.012

13.91,-0.016

13.912,-0.012

13.914,-0.016

13.916,-0.016

13.918000000000001,-0.016

13.92,-0.016

13.922,-0.012

13.924,-0.008

13.926,-0.016

13.928,-0.012

13.93,-0.016

13.932,-0.012

13.934000000000001,-0.016

13.936,-0.016

13.938,-0.016

13.94,-0.02

13.942,-0.02

13.944,-0.02

13.946,-0.016

13.948,-0.012

13.950000000000001,-0.016

13.952,-0.02

13.954,-0.016

13.956,-0.016

13.958,-0.016

13.96,-0.02

13.962,-0.016

13.964,-0.016

13.966000000000001,-0.016

13.968,-0.016

13.97,-0.016

13.972,-0.02

13.974,-0.016

13.976,-0.016

13.978,-0.016

13.98,-0.016

13.982000000000001,-0.02

13.984,-0.016

13.986,-0.016

13.988,-0.016

13.99,-0.024

13.992,-0.016

13.994,-0.02

13.996,-0.016

13.998000000000001,-0.02

14.0,-0.02

14.002,-0.016

14.004,-0.02

14.006,-0.016

14.008000000000001,-0.016

14.01,-0.016

14.012,-0.016

14.014000000000001,-0.016

14.016,-0.016

14.018,-0.016

14.02,-0.016

14.022,-0.02

14.024000000000001,-0.02

14.026,-0.02

14.028,-0.02

14.030000000000001,-0.016

14.032,-0.016

14.034,-0.02

14.036,-0.02

14.038,-0.02

14.040000000000001,-0.02

14.042,-0.024

14.044,-0.024

14.046000000000001,-0.02

14.048,-0.02

14.05,-0.02

14.052,-0.02

14.054,-0.016

14.056000000000001,-0.016

14.058,-0.02

14.06,-0.02

14.062000000000001,-0.02

14.064,-0.02

14.066,-0.02

14.068,-0.024

14.07,-0.02

14.072000000000001,-0.02

14.074,-0.024

14.076,-0.02

14.078000000000001,-0.02

14.08,-0.02

14.082,-0.02

14.084,-0.02

14.086,-0.024

14.088000000000001,-0.024

14.09,-0.024

14.092,-0.024

14.094,-0.024

14.096,-0.02

14.098,-0.02

14.1,-0.02

14.102,-0.016

14.104000000000001,-0.02

14.106,-0.02

14.108,-0.016

14.11,-0.02

14.112,-0.024

14.114,-0.024

14.116,-0.024

14.118,-0.02

14.120000000000001,-0.02

14.122,-0.02

14.124,-0.024

14.126,-0.02

14.128,-0.024

14.13,-0.024

14.132,-0.024

14.134,-0.02

14.136000000000001,-0.024

14.138,-0.02

14.14,-0.024

14.142,-0.024

14.144,-0.02

14.146,-0.02

14.148,-0.02

14.15,-0.024

14.152000000000001,-0.02

14.154,-0.024

14.156,-0.024

14.158,-0.024

14.16,-0.024

14.162,-0.024

14.164,-0.02

14.166,-0.024

14.168000000000001,-0.02

14.17,-0.024

14.172,-0.024

14.174,-0.024

14.176,-0.024

14.178,-0.024

14.18,-0.024

14.182,-0.024

14.184000000000001,-0.024

14.186,-0.024

14.188,-0.028

14.19,-0.024

14.192,-0.02

14.194,-0.024

14.196,-0.024

14.198,-0.02

14.200000000000001,-0.024

14.202,-0.024

14.204,-0.024

14.206,-0.024

14.208,-0.02

14.21,-0.028

14.212,-0.028

14.214,-0.024

14.216000000000001,-0.02

14.218,-0.024

14.22,-0.032

14.222,-0.024

14.224,-0.024

14.226,-0.024

14.228,-0.024

14.23,-0.024

14.232000000000001,-0.024

14.234,-0.024

14.236,-0.024

14.238,-0.024

14.24,-0.028

14.242,-0.028

14.244,-0.024

14.246,-0.024

14.248000000000001,-0.02

14.25,-0.02

14.252,-0.024

14.254,-0.028

14.256,-0.028

14.258000000000001,-0.024

14.26,-0.024

14.262,-0.028

14.264000000000001,-0.028

14.266,-0.028

14.268,-0.028

14.27,-0.028

14.272,-0.032

14.274000000000001,-0.028

14.276,-0.024

14.278,-0.028

14.280000000000001,-0.028

14.282,-0.028

14.284,-0.028

14.286,-0.024

14.288,-0.024

14.290000000000001,-0.028

14.292,-0.028

14.294,-0.028

14.296000000000001,-0.028

14.298,-0.032

14.3,-0.028

14.302,-0.028

14.304,-0.032

14.306000000000001,-0.028

14.308,-0.028

14.31,-0.028

14.312000000000001,-0.024

14.314,-0.028

14.316,-0.024

14.318,-0.024

14.32,-0.032

14.322000000000001,-0.028

14.324,-0.028

14.326,-0.024

14.328000000000001,-0.028

14.33,-0.028

14.332,-0.028

14.334,-0.028

14.336,-0.028

14.338000000000001,-0.024

14.34,-0.028

14.342,-0.028

14.344,-0.028

14.346,-0.028

14.348,-0.028

14.35,-0.032

14.352,-0.028

14.354000000000001,-0.028

14.356,-0.028

14.358,-0.028

14.36,-0.028

14.362,-0.028

14.364,-0.028

14.366,-0.028

14.368,-0.028

14.370000000000001,-0.028

14.372,-0.032

14.374,-0.032

14.376,-0.028

14.378,-0.032

14.38,-0.032

14.382,-0.028

14.384,-0.028

14.386000000000001,-0.032

14.388,-0.028

14.39,-0.032

14.392,-0.028

14.394,-0.028

14.396,-0.032

14.398,-0.028

14.4,-0.028

14.402000000000001,-0.028

14.404,-0.028

14.406,-0.028

14.408,-0.032

14.41,-0.036000000000000004

14.412,-0.032

14.414,-0.028

14.416,-0.028

14.418000000000001,-0.028

14.42,-0.032

14.422,-0.032

14.424,-0.032

14.426,-0.032

14.428,-0.028

14.43,-0.032

14.432,-0.032

14.434000000000001,-0.028

14.436,-0.032

14.438,-0.032

14.44,-0.032

14.442,-0.032

14.444,-0.032

14.446,-0.032

14.448,-0.028

14.450000000000001,-0.032

14.452,-0.036000000000000004

14.454,-0.036000000000000004

14.456,-0.032

14.458,-0.032

14.46,-0.04

14.462,-0.036000000000000004

14.464,-0.028

14.466000000000001,-0.036000000000000004

14.468,-0.032

14.47,-0.032

14.472,-0.036000000000000004

14.474,-0.032

14.476,-0.036000000000000004

14.478,-0.032

14.48,-0.032

14.482000000000001,-0.032

14.484,-0.028

14.486,-0.032

14.488,-0.032

14.49,-0.036000000000000004

14.492,-0.036000000000000004

14.494,-0.036000000000000004

14.496,-0.036000000000000004

14.498000000000001,-0.036000000000000004

14.5,-0.036000000000000004

14.502,-0.032

14.504,-0.032

14.506,-0.032

14.508000000000001,-0.036000000000000004

14.51,-0.036000000000000004

14.512,-0.036000000000000004

14.514000000000001,-0.032

14.516,-0.036000000000000004

14.518,-0.032

14.52,-0.036000000000000004

14.522,-0.032

14.524000000000001,-0.032

14.526,-0.032

14.528,-0.036000000000000004

14.530000000000001,-0.036000000000000004

14.532,-0.032

14.534,-0.032

14.536,-0.036000000000000004

14.538,-0.036000000000000004

14.540000000000001,-0.036000000000000004

14.542,-0.032

14.544,-0.036000000000000004

14.546000000000001,-0.036000000000000004

14.548,-0.04

14.55,-0.036000000000000004

14.552,-0.036000000000000004

14.554,-0.036000000000000004

14.556000000000001,-0.036000000000000004

14.558,-0.032

14.56,-0.036000000000000004

14.562000000000001,-0.036000000000000004

14.564,-0.032

14.566,-0.036000000000000004

14.568,-0.032

14.57,-0.036000000000000004

14.572000000000001,-0.036000000000000004

14.574,-0.032

14.576,-0.036000000000000004

14.578000000000001,-0.036000000000000004

14.58,-0.032

14.582,-0.04

14.584,-0.036000000000000004

14.586,-0.032

14.588000000000001,-0.04

14.59,-0.036000000000000004

14.592,-0.036000000000000004

14.594,-0.036000000000000004

14.596,-0.036000000000000004

14.598,-0.032

14.6,-0.04

14.602,-0.036000000000000004

14.604000000000001,-0.04

14.606,-0.04

14.608,-0.04

14.61,-0.036000000000000004

14.612,-0.036000000000000004

14.614,-0.036000000000000004

14.616,-0.036000000000000004

14.618,-0.04

14.620000000000001,-0.036000000000000004

14.622,-0.036000000000000004

14.624,-0.036000000000000004

14.626,-0.036000000000000004

14.628,-0.036000000000000004

14.63,-0.032

14.632,-0.036000000000000004

14.634,-0.036000000000000004

14.636000000000001,-0.036000000000000004

14.638,-0.032

14.64,-0.036000000000000004

14.642,-0.04

14.644,-0.036000000000000004

14.646,-0.036000000000000004

14.648,-0.04

14.65,-0.032

14.652000000000001,-0.036000000000000004

14.654,-0.036000000000000004

14.656,-0.036000000000000004

14.658,-0.036000000000000004

14.66,-0.04

14.662,-0.036000000000000004

14.664,-0.04

14.666,-0.04

14.668000000000001,-0.04

14.67,-0.036000000000000004

14.672,-0.028

14.674,-0.036000000000000004

14.676,-0.036000000000000004

14.678,-0.04

14.68,-0.036000000000000004

14.682,-0.04

14.684000000000001,-0.04

14.686,-0.036000000000000004

14.688,-0.04

14.69,-0.036000000000000004

14.692,-0.04

14.694,-0.04

14.696,-0.036000000000000004

14.698,-0.036000000000000004

14.700000000000001,-0.036000000000000004

14.702,-0.036000000000000004

14.704,-0.04

14.706,-0.04

14.708,-0.032

14.71,-0.036000000000000004

14.712,-0.036000000000000004

14.714,-0.036000000000000004

14.716000000000001,-0.04

14.718,-0.044

14.72,-0.036000000000000004

14.722,-0.032

14.724,-0.036000000000000004

14.726,-0.036000000000000004

14.728,-0.036000000000000004

14.73,-0.04

14.732000000000001,-0.036000000000000004

14.734,-0.036000000000000004

14.736,-0.04

14.738,-0.04

14.74,-0.04

14.742,-0.036000000000000004

14.744,-0.04

14.746,-0.036000000000000004

14.748000000000001,-0.04

14.75,-0.044

14.752,-0.04

14.754,-0.04

14.756,-0.04

14.758000000000001,-0.04

14.76,-0.04

14.762,-0.036000000000000004

14.764000000000001,-0.036000000000000004

14.766,-0.04

14.768,-0.04

14.77,-0.036000000000000004

14.772,-0.036000000000000004

14.774000000000001,-0.036000000000000004

14.776,-0.04

14.778,-0.036000000000000004

14.780000000000001,-0.04

14.782,-0.036000000000000004

14.784,-0.04

14.786,-0.044

14.788,-0.036000000000000004

14.790000000000001,-0.04

14.792,-0.04

14.794,-0.036000000000000004

14.796000000000001,-0.036000000000000004

14.798,-0.036000000000000004

14.8,-0.04

14.802,-0.04

14.804,-0.044

14.806000000000001,-0.044

14.808,-0.04

14.81,-0.04

14.812000000000001,-0.04

14.814,-0.044

14.816,-0.044

14.818,-0.04

14.82,-0.04

14.822000000000001,-0.04

14.824,-0.04

14.826,-0.04

14.828000000000001,-0.036000000000000004

14.83,-0.04

14.832,-0.04

14.834,-0.044

14.836,-0.044

14.838000000000001,-0.04

14.84,-0.04

14.842,-0.036000000000000004

14.844000000000001,-0.04

14.846,-0.04

14.848,-0.04

14.85,-0.04

14.852,-0.04

14.854000000000001,-0.036000000000000004

14.856,-0.044

14.858,-0.04

14.86,-0.04

14.862,-0.044

14.864,-0.04

14.866,-0.044

14.868,-0.04

14.870000000000001,-0.044

14.872,-0.044

14.874,-0.04

14.876,-0.04

14.878,-0.04

14.88,-0.036000000000000004

14.882,-0.04

14.884,-0.04

14.886000000000001,-0.044

14.888,-0.04

14.89,-0.04

14.892,-0.044

14.894,-0.04

14.896,-0.036000000000000004

14.898,-0.044

14.9,-0.04

14.902000000000001,-0.04

14.904,-0.044

14.906,-0.044

14.908,-0.04

14.91,-0.04

14.912,-0.04

14.914,-0.044

14.916,-0.044

14.918000000000001,-0.044

14.92,-0.04

14.922,-0.04

14.924,-0.04

14.926,-0.044

14.928,-0.044

14.93,-0.044

14.932,-0.044

14.934000000000001,-0.044

14.936,-0.04

14.938,-0.044

14.94,-0.044

14.942,-0.044

14.944,-0.048

14.946,-0.044

14.948,-0.044

14.950000000000001,-0.044

14.952,-0.044

14.954,-0.044

14.956,-0.048

14.958,-0.044

14.96,-0.044

14.962,-0.04

14.964,-0.04

14.966000000000001,-0.036000000000000004

14.968,-0.04

14.97,-0.04

14.972,-0.04

14.974,-0.044

14.976,-0.04

14.978,-0.044

14.98,-0.044

14.982000000000001,-0.044

14.984,-0.044

14.986,-0.04

14.988,-0.044

14.99,-0.044

14.992,-0.04

14.994,-0.044

14.996,-0.044

14.998000000000001,-0.04

15.0,-0.044

15.002,-0.048

15.004,-0.044

15.006,-0.04

15.008000000000001,-0.048

15.01,-0.04

15.012,-0.044

15.014000000000001,-0.04

15.016,-0.044

15.018,-0.044

15.02,-0.044

15.022,-0.044

15.024000000000001,-0.044

15.026,-0.04

15.028,-0.048

15.030000000000001,-0.044

15.032,-0.044

15.034,-0.04

15.036,-0.048

15.038,-0.048

15.040000000000001,-0.044

15.042,-0.04

15.044,-0.04

15.046000000000001,-0.048

15.048,-0.044

15.05,-0.04

15.052,-0.044

15.054,-0.044

15.056000000000001,-0.044

15.058,-0.044

15.06,-0.044

15.062000000000001,-0.04

15.064,-0.044

15.066,-0.048

15.068,-0.048

15.07,-0.044

15.072000000000001,-0.044

15.074,-0.048

15.076,-0.044

15.078000000000001,-0.044

15.08,-0.048

15.082,-0.044

15.084,-0.04

15.086,-0.044

15.088000000000001,-0.048

15.09,-0.048

15.092,-0.044

15.094000000000001,-0.044

15.096,-0.044

15.098,-0.044

15.1,-0.044

15.102,-0.044

15.104000000000001,-0.044

15.106,-0.048

15.108,-0.048

15.11,-0.044

15.112,-0.048

15.114,-0.048

15.116,-0.048

15.118,-0.044

15.120000000000001,-0.044

15.122,-0.044

15.124,-0.044

15.126,-0.04

15.128,-0.048

15.13,-0.048

15.132,-0.048

15.134,-0.044

15.136000000000001,-0.044

15.138,-0.044

15.14,-0.04

15.142,-0.048

15.144,-0.048

15.146,-0.048

15.148,-0.044

15.15,-0.04

15.152000000000001,-0.044

15.154,-0.044

15.156,-0.044

15.158,-0.048

15.16,-0.048

15.162,-0.044

15.164,-0.044

15.166,-0.044

15.168000000000001,-0.048

15.17,-0.044

15.172,-0.044

15.174,-0.048

15.176,-0.048

15.178,-0.048

15.18,-0.044

15.182,-0.048

15.184000000000001,-0.044

15.186,-0.044

15.188,-0.044

15.19,-0.044

15.192,-0.044

15.194,-0.044

15.196,-0.044

15.198,-0.044

15.200000000000001,-0.04

15.202,-0.052000000000000005

15.204,-0.04

15.206,-0.048

15.208,-0.044

15.21,-0.044

15.212,-0.044

15.214,-0.044

15.216000000000001,-0.048

15.218,-0.044

15.22,-0.044

15.222,-0.048

15.224,-0.044

15.226,-0.044

15.228,-0.052000000000000005

15.23,-0.052000000000000005

15.232000000000001,-0.044

15.234,-0.044

15.236,-0.044

15.238,-0.048

15.24,-0.048

15.242,-0.048

15.244,-0.048

15.246,-0.048

15.248000000000001,-0.048

15.25,-0.044

15.252,-0.048

15.254,-0.044

15.256,-0.044

15.258000000000001,-0.048

15.26,-0.044

15.262,-0.048

15.264000000000001,-0.048

15.266,-0.048

15.268,-0.048

15.27,-0.044

15.272,-0.044

15.274000000000001,-0.048

15.276,-0.048

15.278,-0.048

15.280000000000001,-0.048

15.282,-0.044

15.284,-0.048

15.286,-0.052000000000000005

15.288,-0.044

15.290000000000001,-0.048

15.292,-0.052000000000000005

15.294,-0.048

15.296000000000001,-0.044

15.298,-0.048

15.3,-0.048

15.302,-0.052000000000000005

15.304,-0.044

15.306000000000001,-0.044

15.308,-0.048

15.31,-0.048

15.312000000000001,-0.048

15.314,-0.052000000000000005

15.316,-0.044

15.318,-0.048

15.32,-0.048

15.322000000000001,-0.044

15.324,-0.048

15.326,-0.044

15.328000000000001,-0.048

15.33,-0.048

15.332,-0.048

15.334,-0.052000000000000005

15.336,-0.048

15.338000000000001,-0.048

15.34,-0.048

15.342,-0.052000000000000005

15.344000000000001,-0.044

15.346,-0.048

15.348,-0.048

15.35,-0.044

15.352,-0.048

15.354000000000001,-0.048

15.356,-0.044

15.358,-0.048

15.36,-0.048

15.362,-0.048

15.364,-0.048

15.366,-0.048

15.368,-0.048

15.370000000000001,-0.044

15.372,-0.044

15.374,-0.048

15.376,-0.044

15.378,-0.048

15.38,-0.048

15.382,-0.052000000000000005

15.384,-0.044

15.386000000000001,-0.048

15.388,-0.048

15.39,-0.048

15.392,-0.048

15.394,-0.048

15.396,-0.044

15.398,-0.048

15.4,-0.048

15.402000000000001,-0.048

15.404,-0.048

15.406,-0.048

15.408,-0.052000000000000005

15.41,-0.048

15.412,-0.048

15.414,-0.044

15.416,-0.048

15.418000000000001,-0.044

15.42,-0.048

15.422,-0.048

15.424,-0.052000000000000005

15.426,-0.048

15.428,-0.052000000000000005

15.43,-0.048

15.432,-0.044

15.434000000000001,-0.052000000000000005

15.436,-0.048

15.438,-0.048

15.44,-0.048

15.442,-0.048

15.444,-0.052000000000000005

15.446,-0.052000000000000005

15.448,-0.048

15.450000000000001,-0.048

15.452,-0.048

15.454,-0.048

15.456,-0.052000000000000005

15.458,-0.048

15.46,-0.052000000000000005

15.462,-0.052000000000000005

15.464,-0.048

15.466000000000001,-0.056

15.468,-0.048

15.47,-0.048

15.472,-0.048

15.474,-0.048

15.476,-0.044

15.478,-0.044

15.48,-0.052000000000000005

15.482000000000001,-0.052000000000000005

15.484,-0.048

15.486,-0.048

15.488,-0.048

15.49,-0.048

15.492,-0.048

15.494,-0.048

15.496,-0.044

15.498000000000001,-0.048

15.5,-0.048

15.502,-0.048

15.504,-0.052000000000000005

15.506,-0.048

15.508000000000001,-0.048

15.51,-0.048

15.512,-0.048

15.514000000000001,-0.048

15.516,-0.052000000000000005

15.518,-0.048

15.52,-0.052000000000000005

15.522,-0.052000000000000005

15.524000000000001,-0.048

15.526,-0.044

15.528,-0.048

15.530000000000001,-0.048

15.532,-0.048

15.534,-0.048

15.536,-0.048

15.538,-0.048

15.540000000000001,-0.048

15.542,-0.052000000000000005

15.544,-0.044

15.546000000000001,-0.048

15.548,-0.044

15.55,-0.044

15.552,-0.048

15.554,-0.048

15.556000000000001,-0.048

15.558,-0.048

15.56,-0.048

15.562000000000001,-0.048

15.564,-0.044

15.566,-0.048

15.568,-0.048

15.57,-0.044

15.572000000000001,-0.052000000000000005

15.574,-0.048

15.576,-0.048

15.578000000000001,-0.052000000000000005

15.58,-0.048

15.582,-0.048

15.584,-0.048

15.586,-0.044

15.588000000000001,-0.048

15.59,-0.044

15.592,-0.052000000000000005

15.594000000000001,-0.048

15.596,-0.052000000000000005

15.598,-0.052000000000000005

15.6,-0.048

15.602,-0.048

15.604000000000001,-0.048

15.606,-0.052000000000000005

15.608,-0.052000000000000005

15.610000000000001,-0.048

15.612,-0.048

15.614,-0.044

15.616,-0.048

15.618,-0.052000000000000005

15.620000000000001,-0.052000000000000005

15.622,-0.048

15.624,-0.048

15.626,-0.052000000000000005

15.628,-0.048

15.63,-0.048

15.632,-0.048

15.634,-0.048

15.636000000000001,-0.044

15.638,-0.052000000000000005

15.64,-0.048

15.642,-0.048

15.644,-0.048

15.646,-0.052000000000000005

15.648,-0.048

15.65,-0.048

15.652000000000001,-0.048

15.654,-0.048

15.656,-0.044

15.658,-0.052000000000000005

15.66,-0.048

15.662,-0.048

15.664,-0.048

15.666,-0.044

15.668000000000001,-0.044

15.67,-0.044

15.672,-0.048

15.674,-0.052000000000000005

15.676,-0.048

15.678,-0.044

15.68,-0.048

15.682,-0.048

15.684000000000001,-0.052000000000000005

15.686,-0.048

15.688,-0.052000000000000005

15.69,-0.044

15.692,-0.048

15.694,-0.052000000000000005

15.696,-0.048

15.698,-0.044

15.700000000000001,-0.052000000000000005

15.702,-0.048

15.704,-0.048

15.706,-0.048

15.708,-0.048

15.71,-0.048

15.712,-0.052000000000000005

15.714,-0.048

15.716000000000001,-0.048

15.718,-0.048

15.72,-0.048

15.722,-0.048

15.724,-0.044

15.726,-0.056

15.728,-0.048

15.73,-0.048

15.732000000000001,-0.048

15.734,-0.052000000000000005

15.736,-0.052000000000000005

15.738,-0.052000000000000005

15.74,-0.048

15.742,-0.044

15.744,-0.048

15.746,-0.048

15.748000000000001,-0.048

15.75,-0.048

15.752,-0.052000000000000005

15.754,-0.048

15.756,-0.044

15.758000000000001,-0.048

15.76,-0.052000000000000005

15.762,-0.044

15.764000000000001,-0.044

15.766,-0.048

15.768,-0.048

15.77,-0.052000000000000005

15.772,-0.048

15.774000000000001,-0.048

15.776,-0.048

15.778,-0.048

15.780000000000001,-0.048

15.782,-0.044

15.784,-0.052000000000000005

15.786,-0.048

15.788,-0.052000000000000005

15.790000000000001,-0.048

15.792,-0.048

15.794,-0.052000000000000005

15.796000000000001,-0.048

15.798,-0.052000000000000005

15.8,-0.048

15.802,-0.048

15.804,-0.048

15.806000000000001,-0.048

15.808,-0.048

15.81,-0.044

15.812000000000001,-0.048

15.814,-0.048

15.816,-0.048

15.818,-0.048

15.82,-0.048

15.822000000000001,-0.048

15.824,-0.048

15.826,-0.044

15.828000000000001,-0.044

15.83,-0.048

15.832,-0.044

15.834,-0.048

15.836,-0.044

15.838000000000001,-0.048

15.84,-0.044

15.842,-0.044

15.844000000000001,-0.044

15.846,-0.048

15.848,-0.052000000000000005

15.85,-0.048

15.852,-0.048

15.854000000000001,-0.048

15.856,-0.052000000000000005

15.858,-0.052000000000000005

15.860000000000001,-0.048

15.862,-0.048

15.864,-0.048

15.866,-0.048

15.868,-0.044

15.870000000000001,-0.044

15.872,-0.048

15.874,-0.044

15.876,-0.044

15.878,-0.044

15.88,-0.048

15.882,-0.052000000000000005

15.884,-0.048

15.886000000000001,-0.044

15.888,-0.048

15.89,-0.044

15.892,-0.048

15.894,-0.052000000000000005

15.896,-0.044

15.898,-0.048

15.9,-0.048

15.902000000000001,-0.048

15.904,-0.048

15.906,-0.052000000000000005

15.908,-0.052000000000000005

15.91,-0.048

15.912,-0.044

15.914,-0.048

15.916,-0.048

15.918000000000001,-0.048

15.92,-0.048

15.922,-0.048

15.924,-0.048

15.926,-0.048

15.928,-0.044

15.93,-0.044

15.932,-0.048

15.934000000000001,-0.048

15.936,-0.052000000000000005

15.938,-0.048

15.94,-0.044

15.942,-0.048

15.944,-0.048

15.946,-0.048

15.948,-0.044

15.950000000000001,-0.048

15.952,-0.048

15.954,-0.048

15.956,-0.044

15.958,-0.048

15.96,-0.048

15.962,-0.052000000000000005

15.964,-0.048

15.966000000000001,-0.048

15.968,-0.044

15.97,-0.048

15.972,-0.044

15.974,-0.048

15.976,-0.048

15.978,-0.048

15.98,-0.048

15.982000000000001,-0.044

15.984,-0.044

15.986,-0.048

15.988,-0.048

15.99,-0.048

15.992,-0.044

15.994,-0.048

15.996,-0.044

15.998000000000001,-0.044

16.0,-0.048

16.002,-0.048

16.004,-0.048

16.006,-0.048

16.008,-0.044

16.01,-0.044

16.012,-0.048

16.014,-0.048

16.016000000000002,-0.044

16.018,-0.048

16.02,-0.044

16.022000000000002,-0.048

16.024,-0.044

16.026,-0.048

16.028,-0.048

16.03,-0.048

16.032,-0.044

16.034,-0.048

16.036,-0.044

16.038,-0.044

16.04,-0.044

16.042,-0.044

16.044,-0.048

16.046,-0.048

16.048000000000002,-0.048

16.05,-0.048

16.052,-0.052000000000000005

16.054000000000002,-0.048

16.056,-0.052000000000000005

16.058,-0.048

16.06,-0.048

16.062,-0.044

16.064,-0.048

16.066,-0.04

16.068,-0.048

16.07,-0.048

16.072,-0.044

16.074,-0.052000000000000005

16.076,-0.044

16.078,-0.048

16.080000000000002,-0.044

16.082,-0.048

16.084,-0.048

16.086000000000002,-0.048

16.088,-0.048

16.09,-0.048

16.092,-0.048

16.094,-0.044

16.096,-0.048

16.098,-0.048

16.1,-0.048

16.102,-0.048

16.104,-0.052000000000000005

16.106,-0.048

16.108,-0.044

16.11,-0.048

16.112000000000002,-0.048

16.114,-0.048

16.116,-0.044

16.118000000000002,-0.048

16.12,-0.044

16.122,-0.048

16.124,-0.048

16.126,-0.048

16.128,-0.044

16.13,-0.048

16.132,-0.044

16.134,-0.048

16.136,-0.044

16.138,-0.044

16.14,-0.044

16.142,-0.044

16.144000000000002,-0.044

16.146,-0.044

16.148,-0.048

16.15,-0.044

16.152,-0.044

16.154,-0.044

16.156,-0.04

16.158,-0.04

16.16,-0.048

16.162,-0.044

16.164,-0.048

16.166,-0.048

16.168,-0.048

16.17,-0.04

16.172,-0.044

16.174,-0.04

16.176000000000002,-0.04

16.178,-0.048

16.18,-0.044

16.182,-0.04

16.184,-0.044

16.186,-0.044

16.188,-0.04

16.19,-0.044

16.192,-0.04

16.194,-0.044

16.196,-0.044

16.198,-0.04

16.2,-0.044

16.202,-0.048

16.204,-0.048

16.206,-0.044

16.208000000000002,-0.044

16.21,-0.044

16.212,-0.04

16.214,-0.044

16.216,-0.04

16.218,-0.044

16.22,-0.048

16.222,-0.048

16.224,-0.044

16.226,-0.044

16.228,-0.044

16.23,-0.04

16.232,-0.044

16.234,-0.048

16.236,-0.044

16.238,-0.044

16.240000000000002,-0.044

16.242,-0.048

16.244,-0.044

16.246,-0.044

16.248,-0.04

16.25,-0.04

16.252,-0.044

16.254,-0.044

16.256,-0.044

16.258,-0.044

16.26,-0.044

16.262,-0.048

16.264,-0.04

16.266000000000002,-0.044

16.268,-0.04

16.27,-0.04

16.272000000000002,-0.044

16.274,-0.04

16.276,-0.04

16.278,-0.044

16.28,-0.04

16.282,-0.044

16.284,-0.044

16.286,-0.044

16.288,-0.044

16.29,-0.044

16.292,-0.04

16.294,-0.044

16.296,-0.044

16.298000000000002,-0.044

16.3,-0.044

16.302,-0.048

16.304000000000002,-0.04

16.306,-0.04

16.308,-0.044

16.31,-0.04

16.312,-0.04

16.314,-0.04

16.316,-0.04

16.318,-0.04

16.32,-0.044

16.322,-0.04

16.324,-0.044

16.326,-0.044

16.328,-0.044

16.330000000000002,-0.044

16.332,-0.04

16.334,-0.04

16.336000000000002,-0.044

16.338,-0.04

16.34,-0.04

16.342,-0.04

16.344,-0.04

16.346,-0.04

16.348,-0.04

16.35,-0.044

16.352,-0.04

16.354,-0.04

16.356,-0.04

16.358,-0.04

16.36,-0.04

16.362000000000002,-0.04

16.364,-0.04

16.366,-0.04

16.368000000000002,-0.04

16.37,-0.04

16.372,-0.04

16.374,-0.036000000000000004

16.376,-0.044

16.378,-0.036000000000000004

16.38,-0.04

16.382,-0.04

16.384,-0.044

16.386,-0.04

16.388,-0.04

16.39,-0.044

16.392,-0.04

16.394000000000002,-0.04

16.396,-0.036000000000000004

16.398,-0.04

16.4,-0.04

16.402,-0.036000000000000004

16.404,-0.04

16.406,-0.04

16.408,-0.04

16.41,-0.044

16.412,-0.04

16.414,-0.04

16.416,-0.04

16.418,-0.04

16.42,-0.04

16.422,-0.04

16.424,-0.036000000000000004

16.426000000000002,-0.04

16.428,-0.04

16.43,-0.04

16.432,-0.04

16.434,-0.04

16.436,-0.04

16.438,-0.04

16.44,-0.04

16.442,-0.04

16.444,-0.036000000000000004

16.446,-0.044

16.448,-0.04

16.45,-0.044

16.452,-0.044

16.454,-0.044

16.456,-0.044

16.458000000000002,-0.04

16.46,-0.04

16.462,-0.04

16.464,-0.04

16.466,-0.036000000000000004

16.468,-0.04

16.47,-0.04

16.472,-0.036000000000000004

16.474,-0.04

16.476,-0.044

16.478,-0.036000000000000004

16.48,-0.036000000000000004

16.482,-0.04

16.484,-0.04

16.486,-0.036000000000000004

16.488,-0.04

16.490000000000002,-0.04

16.492,-0.04

16.494,-0.04

16.496,-0.04

16.498,-0.04

16.5,-0.036000000000000004

16.502,-0.04

16.504,-0.036000000000000004

16.506,-0.04

16.508,-0.04

16.51,-0.036000000000000004

16.512,-0.04

16.514,-0.036000000000000004

16.516000000000002,-0.04

16.518,-0.036000000000000004

16.52,-0.04

16.522000000000002,-0.04

16.524,-0.04

16.526,-0.04

16.528,-0.044

16.53,-0.04

16.532,-0.04

16.534,-0.04

16.536,-0.04

16.538,-0.036000000000000004

16.54,-0.036000000000000004

16.542,-0.04

16.544,-0.04

16.546,-0.036000000000000004

16.548000000000002,-0.04

16.55,-0.04

16.552,-0.036000000000000004

16.554000000000002,-0.04

16.556,-0.036000000000000004

16.558,-0.04

16.56,-0.04

16.562,-0.04

16.564,-0.032

16.566,-0.04

16.568,-0.04

16.57,-0.032

16.572,-0.036000000000000004

16.574,-0.04

16.576,-0.036000000000000004

16.578,-0.036000000000000004

16.580000000000002,-0.04

16.582,-0.036000000000000004

16.584,-0.036000000000000004

16.586000000000002,-0.04

16.588,-0.044

16.59,-0.036000000000000004

16.592,-0.04

16.594,-0.04

16.596,-0.04

16.598,-0.04

16.6,-0.036000000000000004

16.602,-0.036000000000000004

16.604,-0.036000000000000004

16.606,-0.04

16.608,-0.036000000000000004

16.61,-0.04

16.612000000000002,-0.04

16.614,-0.036000000000000004

16.616,-0.036000000000000004

16.618000000000002,-0.036000000000000004

16.62,-0.032

16.622,-0.04

16.624,-0.036000000000000004

16.626,-0.036000000000000004

16.628,-0.04

16.63,-0.036000000000000004

16.632,-0.036000000000000004

16.634,-0.036000000000000004

16.636,-0.036000000000000004

16.638,-0.036000000000000004

16.64,-0.036000000000000004

16.642,-0.04

16.644000000000002,-0.036000000000000004

16.646,-0.036000000000000004

16.648,-0.036000000000000004

16.65,-0.04

16.652,-0.036000000000000004

16.654,-0.04

16.656,-0.04

16.658,-0.036000000000000004

16.66,-0.032

16.662,-0.036000000000000004

16.664,-0.032

16.666,-0.036000000000000004

16.668,-0.036000000000000004

16.67,-0.036000000000000004

16.672,-0.04

16.674,-0.036000000000000004

16.676000000000002,-0.036000000000000004

16.678,-0.036000000000000004

16.68,-0.032

16.682,-0.036000000000000004

16.684,-0.036000000000000004

16.686,-0.04

16.688,-0.032

16.69,-0.032

16.692,-0.036000000000000004

16.694,-0.032

16.696,-0.036000000000000004

16.698,-0.036000000000000004

16.7,-0.028

16.702,-0.036000000000000004

16.704,-0.032

16.706,-0.028

16.708000000000002,-0.032

16.71,-0.032

16.712,-0.036000000000000004

16.714,-0.028

16.716,-0.036000000000000004

16.718,-0.036000000000000004

16.72,-0.036000000000000004

16.722,-0.036000000000000004

16.724,-0.036000000000000004

16.726,-0.036000000000000004

16.728,-0.036000000000000004

16.73,-0.036000000000000004

16.732,-0.032

16.734,-0.036000000000000004

16.736,-0.032

16.738,-0.036000000000000004

16.740000000000002,-0.032

16.742,-0.032

16.744,-0.032

16.746,-0.028

16.748,-0.032

16.75,-0.032

16.752,-0.032

16.754,-0.024

16.756,-0.028

16.758,-0.032

16.76,-0.028

16.762,-0.032

16.764,-0.028

16.766000000000002,-0.032

16.768,-0.032

16.77,-0.036000000000000004

16.772000000000002,-0.032

16.774,-0.028

16.776,-0.028

16.778,-0.028

16.78,-0.032

16.782,-0.028

16.784,-0.032

16.786,-0.032

16.788,-0.032

16.79,-0.032

16.792,-0.032

16.794,-0.036000000000000004

16.796,-0.028

16.798000000000002,-0.032

16.8,-0.032

16.802,-0.028

16.804000000000002,-0.028

16.806,-0.028

16.808,-0.028

16.81,-0.032

16.812,-0.028

16.814,-0.032

16.816,-0.028

16.818,-0.032

16.82,-0.028

16.822,-0.028

16.824,-0.028

16.826,-0.028

16.828,-0.036000000000000004

16.830000000000002,-0.028

16.832,-0.028

16.834,-0.028

16.836000000000002,-0.032

16.838,-0.028

16.84,-0.032

16.842,-0.032

16.844,-0.028

16.846,-0.032

16.848,-0.032

16.85,-0.028

16.852,-0.032

16.854,-0.028

16.856,-0.028

16.858,-0.032

16.86,-0.028

16.862000000000002,-0.032

16.864,-0.028

16.866,-0.028

16.868000000000002,-0.024

16.87,-0.028

16.872,-0.028

16.874,-0.028

16.876,-0.032

16.878,-0.032

16.88,-0.028

16.882,-0.028

16.884,-0.032

16.886,-0.024

16.888,-0.028

16.89,-0.028

16.892,-0.024

16.894000000000002,-0.028

16.896,-0.028

16.898,-0.028

16.9,-0.028

16.902,-0.028

16.904,-0.028

16.906,-0.028

16.908,-0.024

16.91,-0.02

16.912,-0.028

16.914,-0.032

16.916,-0.028

16.918,-0.024

16.92,-0.02

16.922,-0.024

16.924,-0.028

16.926000000000002,-0.028

16.928,-0.028

16.93,-0.028

16.932,-0.024

16.934,-0.028

16.936,-0.028

16.938,-0.028

16.94,-0.024

16.942,-0.024

16.944,-0.024

16.946,-0.024

16.948,-0.02

16.95,-0.024

16.952,-0.024

16.954,-0.028

16.956,-0.024

16.958000000000002,-0.024

16.96,-0.024

16.962,-0.024

16.964,-0.028

16.966,-0.024

16.968,-0.028

16.97,-0.028

16.972,-0.024

16.974,-0.024

16.976,-0.024

16.978,-0.024

16.98,-0.024

16.982,-0.024

16.984,-0.028

16.986,-0.024

16.988,-0.028

16.990000000000002,-0.028

16.992,-0.024

16.994,-0.028

16.996,-0.024

16.998,-0.02

17.0,-0.028

17.002,-0.024

17.004,-0.024

17.006,-0.028

17.008,-0.024

17.01,-0.02

17.012,-0.024

17.014,-0.028

17.016000000000002,-0.02

17.018,-0.02

17.02,-0.02

17.022000000000002,-0.024

17.024,-0.024

17.026,-0.024

17.028,-0.024

17.03,-0.024

17.032,-0.02

17.034,-0.028

17.036,-0.02

17.038,-0.024

17.04,-0.028

17.042,-0.024

17.044,-0.024

17.046,-0.028

17.048000000000002,-0.024

17.05,-0.028

17.052,-0.02

17.054000000000002,-0.024

17.056,-0.02

17.058,-0.024

17.06,-0.024

17.062,-0.024

17.064,-0.02

17.066,-0.02

17.068,-0.028

17.07,-0.024

17.072,-0.02

17.074,-0.024

17.076,-0.02

17.078,-0.02

17.080000000000002,-0.02

17.082,-0.024

17.084,-0.02

17.086000000000002,-0.02

17.088,-0.02

17.09,-0.02

17.092,-0.024

17.094,-0.028

17.096,-0.02

17.098,-0.02

17.1,-0.024

17.102,-0.02

17.104,-0.024

17.106,-0.024

17.108,-0.02

17.11,-0.02

17.112000000000002,-0.024

17.114,-0.02

17.116,-0.02

17.118000000000002,-0.02

17.12,-0.024

17.122,-0.02

17.124,-0.024

17.126,-0.02

17.128,-0.02

17.13,-0.016

17.132,-0.02

17.134,-0.024

17.136,-0.02

17.138,-0.024

17.14,-0.02

17.142,-0.02

17.144000000000002,-0.024

17.146,-0.02

17.148,-0.02

17.150000000000002,-0.02

17.152,-0.02

17.154,-0.02

17.156,-0.02

17.158,-0.02

17.16,-0.02

17.162,-0.02

17.164,-0.02

17.166,-0.02

17.168,-0.02

17.17,-0.016

17.172,-0.016

17.174,-0.02

17.176000000000002,-0.016

17.178,-0.024

17.18,-0.02

17.182,-0.02

17.184,-0.016

17.186,-0.02

17.188,-0.016

17.19,-0.02

17.192,-0.02

17.194,-0.02

17.196,-0.02

17.198,-0.02

17.2,-0.016

17.202,-0.016

17.204,-0.016

17.206,-0.016

17.208000000000002,-0.02

17.21,-0.02

17.212,-0.02

17.214,-0.02

17.216,-0.02

17.218,-0.02

17.22,-0.016

17.222,-0.016

17.224,-0.02

17.226,-0.016

17.228,-0.02

17.23,-0.016

17.232,-0.016

17.234,-0.016

17.236,-0.012

17.238,-0.024

17.240000000000002,-0.02

17.242,-0.02

17.244,-0.016

17.246,-0.016

17.248,-0.016

17.25,-0.012

17.252,-0.016

17.254,-0.016

17.256,-0.016

17.258,-0.016

17.26,-0.016

17.262,-0.016

17.264,-0.016

17.266000000000002,-0.02

17.268,-0.02

17.27,-0.02

17.272000000000002,-0.016

17.274,-0.012

17.276,-0.016

17.278,-0.012

17.28,-0.02

17.282,-0.016

17.284,-0.016

17.286,-0.02

17.288,-0.016

17.29,-0.016

17.292,-0.02

17.294,-0.012

17.296,-0.016

17.298000000000002,-0.012

17.3,-0.016

17.302,-0.016

17.304000000000002,-0.016

17.306,-0.02

17.308,-0.016

17.31,-0.016

17.312,-0.016

17.314,-0.016

17.316,-0.016

17.318,-0.016

17.32,-0.02

17.322,-0.016

17.324,-0.016

17.326,-0.012

17.328,-0.012

17.330000000000002,-0.012

17.332,-0.016

17.334,-0.008

17.336000000000002,-0.016

17.338,-0.008

17.34,-0.012

17.342,-0.008

17.344,-0.012

17.346,-0.008

17.348,-0.012

17.35,-0.012

17.352,-0.012

17.354,-0.008

17.356,-0.008

17.358,-0.012

17.36,-0.016

17.362000000000002,-0.012

17.364,-0.012

17.366,-0.012

17.368000000000002,-0.012

17.37,-0.004

17.372,-0.008

17.374,-0.012

17.376,-0.012

17.378,-0.008

17.38,-0.012

17.382,-0.012

17.384,-0.012

17.386,-0.008

17.388,-0.012

17.39,-0.008

17.392,-0.008

17.394000000000002,-0.008

17.396,-0.012

17.398,-0.008

17.400000000000002,-0.012

17.402,-0.012

17.404,-0.008

17.406,-0.008

17.408,-0.012

17.41,-0.008

17.412,-0.012

17.414,-0.008

17.416,-0.008

17.418,-0.008

17.42,-0.012

17.422,-0.016

17.424,-0.012

17.426000000000002,-0.008

17.428,-0.008

17.43,-0.012

17.432,-0.008

17.434,-0.008

17.436,-0.016

17.438,-0.012

17.44,-0.012

17.442,-0.012

17.444,-0.008

17.446,-0.008

17.448,-0.008

17.45,-0.012

17.452,-0.008

17.454,-0.008

17.456,-0.008

17.458000000000002,-0.004

17.46,-0.008

17.462,-0.008

17.464,-0.008

17.466,-0.012

17.468,-0.004

17.47,-0.008

17.472,-0.012

17.474,-0.008

17.476,-0.008

17.478,-0.012

17.48,-0.012

17.482,-0.012

17.484,-0.008

17.486,-0.008

17.488,-0.008

17.490000000000002,-0.008

17.492,-0.004

17.494,-0.008

17.496,-0.008

17.498,-0.004

17.5,-0.008

17.502,-0.004

17.504,-0.008

17.506,-0.004

17.508,-0.008

17.51,-0.008

17.512,-0.008

17.514,-0.008

17.516000000000002,-0.008

17.518,-0.004

17.52,-0.008

17.522000000000002,-0.008

17.524,-0.008

17.526,-0.004

17.528,-0.004

17.53,-0.004

17.532,-0.004

17.534,-0.008

17.536,-0.004

17.538,-0.004

17.54,-0.004

17.542,-0.004

17.544,-0.004

17.546,-0.008

17.548000000000002,-0.004

17.55,0.0

17.552,-0.004

17.554000000000002,-0.004

17.556,-0.004

17.558,-0.008

17.56,-0.004

17.562,-0.004

17.564,-0.004

17.566,-0.004

17.568,-0.004

17.57,0.0

17.572,-0.004

17.574,-0.004

17.576,-0.008

17.578,-0.004

17.580000000000002,-0.004

17.582,0.0

17.584,-0.008

17.586000000000002,-0.004

17.588,-0.004

17.59,-0.004

17.592,0.0

17.594,-0.004

17.596,0.0

17.598,-0.004

17.6,-0.004

17.602,-0.004

17.604,0.0

17.606,-0.008

17.608,-0.004

17.61,0.0

17.612000000000002,-0.004

17.614,-0.004

17.616,-0.004

17.618000000000002,0.0

17.62,0.0

17.622,-0.004

17.624,0.0

17.626,-0.004

17.628,-0.004

17.63,0.0

17.632,-0.004

17.634,-0.004

17.636,0.0

17.638,-0.008

17.64,-0.008

17.642,-0.004

17.644000000000002,-0.004

17.646,0.0

17.648,0.0

17.650000000000002,0.0

17.652,-0.004

17.654,0.0

17.656,0.0

17.658,0.0

17.66,-0.004

17.662,-0.004

17.664,-0.004

17.666,-0.004

17.668,0.0

17.67,0.0

17.672,0.0

17.674,0.0

17.676000000000002,-0.004

17.678,0.0

17.68,0.0

17.682,0.0

17.684,0.0

17.686,-0.004

17.688,-0.004

17.69,-0.004

17.692,0.0

17.694,0.0

17.696,0.004

17.698,0.0

17.7,0.0

17.702,0.004

17.704,0.004

17.706,0.0

17.708000000000002,0.0

17.71,0.0

17.712,0.004

17.714,0.004

17.716,0.0

17.718,0.004

17.72,0.0

17.722,0.0

17.724,0.004

17.726,0.004

17.728,0.0

17.73,0.004

17.732,0.004

17.734,0.004

17.736,0.0

17.738,0.004

17.740000000000002,0.004

17.742,0.004

17.744,0.0

17.746,0.004

17.748,0.004

17.75,0.0

17.752,0.004

17.754,0.004

17.756,0.0

17.758,0.004

17.76,0.004

17.762,0.0

17.764,0.0

17.766000000000002,0.004

17.768,0.008

17.77,0.004

17.772000000000002,0.008

17.774,0.004

17.776,0.004

17.778,0.004

17.78,0.004

17.782,0.004

17.784,0.008

17.786,0.0

17.788,0.004

17.79,0.008

17.792,0.004

17.794,0.004

17.796,0.004

17.798000000000002,0.004

17.8,0.004

17.802,0.004

17.804000000000002,0.0

17.806,0.004

17.808,0.008

17.81,0.004

17.812,0.004

17.814,0.0

17.816,0.004

17.818,0.0

17.82,0.0

17.822,0.004

17.824,0.004

17.826,0.0

17.828,0.004

17.830000000000002,0.004

17.832,0.008

17.834,0.008

17.836000000000002,0.004

17.838,0.004

17.84,0.004

17.842,0.0

17.844,0.004

17.846,0.004

17.848,0.004

17.85,0.008

17.852,0.008

17.854,0.008

17.856,0.004

17.858,0.004

17.86,0.004

17.862000000000002,0.004

17.864,0.012

17.866,0.008

17.868000000000002,0.008

17.87,0.008

17.872,0.004

17.874,0.004

17.876,0.012

17.878,0.004

17.88,0.012

17.882,0.008

17.884,0.008

17.886,0.004

17.888,0.012

17.89,0.008

17.892,0.008

17.894000000000002,0.008

17.896,0.008

17.898,0.008

17.900000000000002,0.008

17.902,0.008

17.904,0.008

17.906,0.012

17.908,0.008

17.91,0.012

17.912,0.008

17.914,0.008

17.916,0.008

17.918,0.008

17.92,0.008

17.922,0.004

17.924,0.012

17.926000000000002,0.012

17.928,0.012

17.93,0.012

17.932,0.016

17.934,0.008

17.936,0.008

17.938,0.008

17.94,0.008

17.942,0.008

17.944,0.012

17.946,0.012

17.948,0.016

17.95,0.008

17.952,0.012

17.954,0.008

17.956,0.012

17.958000000000002,0.012

17.96,0.012

17.962,0.016

17.964,0.012

17.966,0.012

17.968,0.016

17.97,0.012

17.972,0.008

17.974,0.012

17.976,0.016

17.978,0.012

17.98,0.012

17.982,0.008

17.984,0.012

17.986,0.016

17.988,0.012

17.990000000000002,0.012

17.992,0.016

17.994,0.012

17.996,0.016

17.998,0.008

18.0,0.012

18.002,0.012

18.004,0.016

18.006,0.012

18.008,0.012

18.01,0.016

18.012,0.016

18.014,0.016

18.016000000000002,0.008

18.018,0.02

18.02,0.012

18.022000000000002,0.012

18.024,0.016

18.026,0.012

18.028,0.012

18.03,0.016

18.032,0.016

18.034,0.016

18.036,0.008

18.038,0.016

18.04,0.012

18.042,0.016

18.044,0.012

18.046,0.02

18.048000000000002,0.012

18.05,0.016

18.052,0.02

18.054000000000002,0.016

18.056,0.02

18.058,0.016

18.06,0.012

18.062,0.02

18.064,0.016

18.066,0.016

18.068,0.012

18.07,0.016

18.072,0.02

18.074,0.016

18.076,0.016

18.078,0.02

18.080000000000002,0.02

18.082,0.02

18.084,0.012

18.086000000000002,0.02

18.088,0.02

18.09,0.016

18.092,0.02

18.094,0.02

18.096,0.016

18.098,0.02

18.1,0.02

18.102,0.016

18.104,0.016

18.106,0.02

18.108,0.02

18.11,0.016

18.112000000000002,0.016

18.114,0.016

18.116,0.016

18.118000000000002,0.02

18.12,0.02

18.122,0.02

18.124,0.016

18.126,0.024

18.128,0.02

18.13,0.016

18.132,0.02

18.134,0.02

18.136,0.02

18.138,0.012

18.14,0.02

18.142,0.02

18.144000000000002,0.02

18.146,0.02

18.148,0.02

18.150000000000002,0.02

18.152,0.016

18.154,0.02

18.156,0.016

18.158,0.016

18.16,0.016

18.162,0.024

18.164,0.02

18.166,0.02

18.168,0.02

18.17,0.02

18.172,0.02

18.174,0.024

18.176000000000002,0.024

18.178,0.02

18.18,0.02

18.182,0.02

18.184,0.024

18.186,0.02

18.188,0.024

18.19,0.024

18.192,0.02

18.194,0.024

18.196,0.02

18.198,0.02

18.2,0.024

18.202,0.02

18.204,0.02

18.206,0.02

18.208000000000002,0.024

18.21,0.02

18.212,0.024

18.214,0.02

18.216,0.02

18.218,0.024

18.22,0.024

18.222,0.02

18.224,0.024

18.226,0.02

18.228,0.02

18.23,0.02

18.232,0.02

18.234,0.02

18.236,0.02

18.238,0.02

18.240000000000002,0.024

18.242,0.024

18.244,0.028

18.246,0.024

18.248,0.02

18.25,0.02

18.252,0.02

18.254,0.028

18.256,0.016

18.258,0.024

18.26,0.02

18.262,0.024

18.264,0.028

18.266000000000002,0.028

18.268,0.024

18.27,0.024

18.272000000000002,0.024

18.274,0.024

18.276,0.02

18.278,0.028

18.28,0.024

18.282,0.024

18.284,0.024

18.286,0.02

18.288,0.024

18.29,0.028

18.292,0.024

18.294,0.024

18.296,0.028

18.298000000000002,0.024

18.3,0.024

18.302,0.024

18.304000000000002,0.024

18.306,0.02

18.308,0.02

18.31,0.024

18.312,0.024

18.314,0.024

18.316,0.028

18.318,0.028

18.32,0.02

18.322,0.028

18.324,0.028

18.326,0.028

18.328,0.024

18.330000000000002,0.024

18.332,0.02

18.334,0.024

18.336000000000002,0.028

18.338,0.028

18.34,0.028

18.342,0.028

18.344,0.024

18.346,0.02

18.348,0.032

18.35,0.024

18.352,0.028

18.354,0.028

18.356,0.028

18.358,0.028

18.36,0.028

18.362000000000002,0.028

18.364,0.032

18.366,0.028

18.368000000000002,0.028

18.37,0.032

18.372,0.028

18.374,0.028

18.376,0.032

18.378,0.028

18.38,0.024

18.382,0.028

18.384,0.028

18.386,0.032

18.388,0.028

18.39,0.028

18.392,0.032

18.394000000000002,0.032

18.396,0.028

18.398,0.028

18.400000000000002,0.028

18.402,0.024

18.404,0.028

18.406,0.032

18.408,0.028

18.41,0.036000000000000004

18.412,0.024

18.414,0.028

18.416,0.032

18.418,0.032

18.42,0.032

18.422,0.032

18.424,0.032

18.426000000000002,0.028

18.428,0.032

18.43,0.032

18.432000000000002,0.032

18.434,0.032

18.436,0.028

18.438,0.032

18.44,0.028

18.442,0.032

18.444,0.032

18.446,0.032

18.448,0.032

18.45,0.032

18.452,0.036000000000000004

18.454,0.032

18.456,0.028

18.458000000000002,0.032

18.46,0.032

18.462,0.028

18.464,0.032

18.466,0.032

18.468,0.032

18.47,0.032

18.472,0.028

18.474,0.032

18.476,0.032

18.478,0.032

18.48,0.028

18.482,0.032

18.484,0.032

18.486,0.032

18.488,0.032

18.490000000000002,0.032

18.492,0.028

18.494,0.032

18.496,0.032

18.498,0.032

18.5,0.036000000000000004

18.502,0.036000000000000004

18.504,0.032

18.506,0.032

18.508,0.028

18.51,0.036000000000000004

18.512,0.032

18.514,0.036000000000000004

18.516000000000002,0.036000000000000004

18.518,0.036000000000000004

18.52,0.032

18.522000000000002,0.032

18.524,0.032

18.526,0.036000000000000004

18.528,0.036000000000000004

18.53,0.04

18.532,0.036000000000000004

18.534,0.036000000000000004

18.536,0.04

18.538,0.036000000000000004

18.54,0.036000000000000004

18.542,0.036000000000000004

18.544,0.032

18.546,0.032

18.548000000000002,0.032

18.55,0.032

18.552,0.036000000000000004

18.554000000000002,0.036000000000000004

18.556,0.036000000000000004

18.558,0.04

18.56,0.036000000000000004

18.562,0.04

18.564,0.032

18.566,0.032

18.568,0.036000000000000004

18.57,0.036000000000000004

18.572,0.032

18.574,0.04

18.576,0.036000000000000004

18.578,0.04

18.580000000000002,0.04

18.582,0.036000000000000004

18.584,0.032

18.586000000000002,0.04

18.588,0.036000000000000004

18.59,0.036000000000000004

18.592,0.04

18.594,0.036000000000000004

18.596,0.036000000000000004

18.598,0.036000000000000004

18.6,0.036000000000000004

18.602,0.032

18.604,0.04

18.606,0.04

18.608,0.036000000000000004

18.61,0.036000000000000004

18.612000000000002,0.036000000000000004

18.614,0.04

18.616,0.04

18.618000000000002,0.036000000000000004

18.62,0.044

18.622,0.036000000000000004

18.624,0.04

18.626,0.036000000000000004

18.628,0.036000000000000004

18.63,0.036000000000000004

18.632,0.04

18.634,0.036000000000000004

18.636,0.04

18.638,0.04

18.64,0.04

18.642,0.04

18.644000000000002,0.04

18.646,0.044

18.648,0.044

18.650000000000002,0.044

18.652,0.044

18.654,0.036000000000000004

18.656,0.04

18.658,0.036000000000000004

18.66,0.04

18.662,0.036000000000000004

18.664,0.04

18.666,0.04

18.668,0.044

18.67,0.04

18.672,0.04

18.674,0.036000000000000004

18.676000000000002,0.036000000000000004

18.678,0.036000000000000004

18.68,0.04

18.682000000000002,0.044

18.684,0.04

18.686,0.036000000000000004

18.688,0.044

18.69,0.044

18.692,0.04

18.694,0.048

18.696,0.044

18.698,0.04

18.7,0.036000000000000004

18.702,0.048

18.704,0.044

18.706,0.044

18.708000000000002,0.04

18.71,0.044

18.712,0.036000000000000004

18.714,0.048

18.716,0.044

18.718,0.04

18.72,0.04

18.722,0.044

18.724,0.044

18.726,0.04

18.728,0.044

18.73,0.036000000000000004

18.732,0.044

18.734,0.044

18.736,0.04

18.738,0.04

18.740000000000002,0.044

18.742,0.044

18.744,0.04

18.746,0.04

18.748,0.044

18.75,0.044

18.752,0.048

18.754,0.044

18.756,0.048

18.758,0.052000000000000005

18.76,0.044

18.762,0.044

18.764,0.044

18.766000000000002,0.044

18.768,0.044

18.77,0.052000000000000005

18.772000000000002,0.044

18.774,0.044

18.776,0.04

18.778,0.048

18.78,0.044

18.782,0.048

18.784,0.044

18.786,0.044

18.788,0.044

18.79,0.044

18.792,0.044

18.794,0.048

18.796,0.052000000000000005

18.798000000000002,0.044

18.8,0.048

18.802,0.044

18.804000000000002,0.044

18.806,0.052000000000000005

18.808,0.048

18.81,0.044

18.812,0.048

18.814,0.044

18.816,0.044

18.818,0.044

18.82,0.048

18.822,0.048

18.824,0.048

18.826,0.048

18.828,0.048

18.830000000000002,0.052000000000000005

18.832,0.044

18.834,0.044

18.836000000000002,0.044

18.838,0.044

18.84,0.044

18.842,0.052000000000000005

18.844,0.044

18.846,0.048

18.848,0.048

18.85,0.04

18.852,0.048

18.854,0.048

18.856,0.044

18.858,0.048

18.86,0.048

18.862000000000002,0.044

18.864,0.044

18.866,0.048

18.868000000000002,0.044

18.87,0.044

18.872,0.048

18.874,0.048

18.876,0.048

18.878,0.048

18.88,0.048

18.882,0.048

18.884,0.048

18.886,0.052000000000000005

18.888,0.044

18.89,0.048

18.892,0.052000000000000005

18.894000000000002,0.048

18.896,0.048

18.898,0.048

18.900000000000002,0.048

18.902,0.048

18.904,0.044

18.906,0.044

18.908,0.048

18.91,0.048

18.912,0.052000000000000005

18.914,0.048

18.916,0.052000000000000005

18.918,0.052000000000000005

18.92,0.048

18.922,0.044

18.924,0.052000000000000005

18.926000000000002,0.048

18.928,0.048

18.93,0.052000000000000005

18.932000000000002,0.052000000000000005

18.934,0.048

18.936,0.048

18.938,0.052000000000000005

18.94,0.052000000000000005

18.942,0.048

18.944,0.048

18.946,0.052000000000000005

18.948,0.052000000000000005

18.95,0.052000000000000005

18.952,0.052000000000000005

18.954,0.052000000000000005

18.956,0.052000000000000005

18.958000000000002,0.052000000000000005

18.96,0.052000000000000005

18.962,0.052000000000000005

18.964,0.048

18.966,0.052000000000000005

18.968,0.052000000000000005

18.97,0.056

18.972,0.044

18.974,0.048

18.976,0.052000000000000005

18.978,0.056

18.98,0.052000000000000005

18.982,0.052000000000000005

18.984,0.048

18.986,0.052000000000000005

18.988,0.056

18.990000000000002,0.048

18.992,0.052000000000000005

18.994,0.052000000000000005

18.996,0.056

18.998,0.052000000000000005

19.0,0.052000000000000005

19.002,0.052000000000000005

19.004,0.056

19.006,0.052000000000000005

19.008,0.052000000000000005

19.01,0.048

19.012,0.052000000000000005

19.014,0.048

19.016000000000002,0.052000000000000005

19.018,0.052000000000000005

19.02,0.056

19.022000000000002,0.052000000000000005

19.024,0.048

19.026,0.048

19.028,0.052000000000000005

19.03,0.048

19.032,0.052000000000000005

19.034,0.052000000000000005

19.036,0.052000000000000005

19.038,0.052000000000000005

19.04,0.052000000000000005

19.042,0.056

19.044,0.052000000000000005

19.046,0.052000000000000005

19.048000000000002,0.048

19.05,0.048

19.052,0.056

19.054000000000002,0.052000000000000005

19.056,0.052000000000000005

19.058,0.048

19.06,0.052000000000000005

19.062,0.052000000000000005

19.064,0.052000000000000005

19.066,0.052000000000000005

19.068,0.056

19.07,0.056

19.072,0.048

19.074,0.048

19.076,0.052000000000000005

19.078,0.052000000000000005

19.080000000000002,0.052000000000000005

19.082,0.056

19.084,0.056

19.086000000000002,0.052000000000000005

19.088,0.056

19.09,0.056

19.092,0.052000000000000005

19.094,0.056

19.096,0.056

19.098,0.056

19.1,0.056

19.102,0.056

19.104,0.052000000000000005

19.106,0.056

19.108,0.056

19.11,0.056

19.112000000000002,0.06

19.114,0.056

19.116,0.056

19.118000000000002,0.06

19.12,0.056

19.122,0.052000000000000005

19.124,0.056

19.126,0.052000000000000005

19.128,0.06

19.13,0.056

19.132,0.056

19.134,0.056

19.136,0.064

19.138,0.056

19.14,0.056

19.142,0.056

19.144000000000002,0.056

19.146,0.052000000000000005

19.148,0.056

19.150000000000002,0.056

19.152,0.06

19.154,0.056

19.156,0.056

19.158,0.056

19.16,0.056

19.162,0.052000000000000005

19.164,0.06

19.166,0.056

19.168,0.056

19.17,0.052000000000000005

19.172,0.052000000000000005

19.174,0.06

19.176000000000002,0.056

19.178,0.06

19.18,0.056

19.182000000000002,0.056

19.184,0.056

19.186,0.056

19.188,0.056

19.19,0.056

19.192,0.056

19.194,0.056

19.196,0.056

19.198,0.056

19.2,0.056

19.202,0.056

19.204,0.056

19.206,0.06

19.208000000000002,0.06

19.21,0.06

19.212,0.056

19.214,0.056

19.216,0.056

19.218,0.056

19.22,0.056

19.222,0.052000000000000005

19.224,0.056

19.226,0.052000000000000005

19.228,0.056

19.23,0.06

19.232,0.056

19.234,0.06

19.236,0.056

19.238,0.056

19.240000000000002,0.056

19.242,0.056

19.244,0.06

19.246,0.052000000000000005

19.248,0.056

19.25,0.06

19.252,0.06

19.254,0.056

19.256,0.06

19.258,0.056

19.26,0.056

19.262,0.052000000000000005

19.264,0.056

19.266000000000002,0.06

19.268,0.06

19.27,0.056

19.272000000000002,0.056

19.274,0.06

19.276,0.056

19.278,0.06

19.28,0.06

19.282,0.056

19.284,0.056

19.286,0.056

19.288,0.06

19.29,0.06

19.292,0.06

19.294,0.056

19.296,0.06

19.298000000000002,0.064

19.3,0.056

19.302,0.06

19.304000000000002,0.056

19.306,0.06

19.308,0.06

19.31,0.064

19.312,0.06

19.314,0.06

19.316,0.06

19.318,0.06

19.32,0.06

19.322,0.06

19.324,0.06

19.326,0.06

19.328,0.06

19.330000000000002,0.056

19.332,0.064

19.334,0.064

19.336000000000002,0.064

19.338,0.064

19.34,0.06

19.342,0.064

19.344,0.06

19.346,0.064

19.348,0.064

19.35,0.064

19.352,0.06

19.354,0.064

19.356,0.06

19.358,0.06

19.36,0.056

19.362000000000002,0.06

19.364,0.064

19.366,0.06

19.368000000000002,0.06

19.37,0.064

19.372,0.06

19.374,0.06

19.376,0.064

19.378,0.064

19.38,0.064

19.382,0.06

19.384,0.064

19.386,0.064

19.388,0.06

19.39,0.06

19.392,0.07200000000000001

19.394000000000002,0.064

19.396,0.06

19.398,0.068

19.400000000000002,0.068

19.402,0.064

19.404,0.06

19.406,0.06

19.408,0.064

19.41,0.06

19.412,0.06

19.414,0.064

19.416,0.064

19.418,0.064

19.42,0.06

19.422,0.056

19.424,0.06

19.426000000000002,0.056

19.428,0.064

19.43,0.064

19.432000000000002,0.064

19.434,0.06

19.436,0.064

19.438,0.06

19.44,0.06

19.442,0.064

19.444,0.064

19.446,0.06

19.448,0.064

19.45,0.064

19.452,0.06

19.454,0.064

19.456,0.06

19.458000000000002,0.064

19.46,0.064

19.462,0.068

19.464,0.064

19.466,0.064

19.468,0.068

19.47,0.064

19.472,0.068

19.474,0.064

19.476,0.06

19.478,0.064

19.48,0.068

19.482,0.064

19.484,0.064

19.486,0.068

19.488,0.068

19.490000000000002,0.068

19.492,0.068

19.494,0.068

19.496,0.068

19.498,0.064

19.5,0.064

19.502,0.064

19.504,0.068

19.506,0.068

19.508,0.068

19.51,0.064

19.512,0.064

19.514,0.064

19.516000000000002,0.068

19.518,0.064

19.52,0.06

19.522000000000002,0.064

19.524,0.064

19.526,0.064

19.528,0.064

19.53,0.068

19.532,0.068

19.534,0.064

19.536,0.064

19.538,0.068

19.54,0.068

19.542,0.068

19.544,0.064

19.546,0.064

19.548000000000002,0.068

19.55,0.064

19.552,0.06

19.554000000000002,0.064

19.556,0.064

19.558,0.068

19.56,0.064

19.562,0.064

19.564,0.064

19.566,0.068

19.568,0.068

19.57,0.064

19.572,0.068

19.574,0.068

19.576,0.064

19.578,0.064

19.580000000000002,0.068

19.582,0.068

19.584,0.068

19.586000000000002,0.064

19.588,0.064

19.59,0.064

19.592,0.068

19.594,0.07200000000000001

19.596,0.068

19.598,0.064

19.6,0.064

19.602,0.068

19.604,0.068

19.606,0.07200000000000001

19.608,0.068

19.61,0.068

19.612000000000002,0.068

19.614,0.064

19.616,0.068

19.618000000000002,0.064

19.62,0.064

19.622,0.064

19.624,0.064

19.626,0.068

19.628,0.07200000000000001

19.63,0.064

19.632,0.068

19.634,0.064

19.636,0.068

19.638,0.064

19.64,0.064

19.642,0.064

19.644000000000002,0.068

19.646,0.068

19.648,0.068

19.650000000000002,0.068

19.652,0.068

19.654,0.068

19.656,0.068

19.658,0.068

19.66,0.068

19.662,0.068

19.664,0.064

19.666,0.068

19.668,0.064

19.67,0.068

19.672,0.068

19.674,0.068

19.676000000000002,0.068

19.678,0.068

19.68,0.068

19.682000000000002,0.068

19.684,0.068

19.686,0.068

19.688,0.07200000000000001

19.69,0.068

19.692,0.068

19.694,0.07200000000000001

19.696,0.068

19.698,0.07200000000000001

19.7,0.068

19.702,0.07200000000000001

19.704,0.068

19.706,0.07200000000000001

19.708000000000002,0.064

19.71,0.068

19.712,0.07200000000000001

19.714,0.07200000000000001

19.716,0.07200000000000001

19.718,0.068

19.72,0.07200000000000001

19.722,0.07200000000000001

19.724,0.068

19.726,0.07200000000000001

19.728,0.068

19.73,0.07200000000000001

19.732,0.068

19.734,0.07200000000000001

19.736,0.064

19.738,0.07200000000000001

19.740000000000002,0.07200000000000001

19.742,0.068

19.744,0.07200000000000001

19.746,0.07200000000000001

19.748,0.068

19.75,0.068

19.752,0.068

19.754,0.064

19.756,0.068

19.758,0.07200000000000001

19.76,0.07200000000000001

19.762,0.07200000000000001

19.764,0.07200000000000001

19.766000000000002,0.068

19.768,0.07200000000000001

19.77,0.07200000000000001

19.772000000000002,0.068

19.774,0.07200000000000001

19.776,0.064

19.778,0.064

19.78,0.068

19.782,0.068

19.784,0.064

19.786,0.068

19.788,0.068

19.79,0.068

19.792,0.068

19.794,0.07200000000000001

19.796,0.068

19.798000000000002,0.068

19.8,0.07200000000000001

19.802,0.064

19.804000000000002,0.07200000000000001

19.806,0.07200000000000001

19.808,0.07200000000000001

19.81,0.07200000000000001

19.812,0.07200000000000001

19.814,0.07200000000000001

19.816,0.07200000000000001

19.818,0.07200000000000001

19.82,0.07200000000000001

19.822,0.07200000000000001

19.824,0.07200000000000001

19.826,0.07200000000000001

19.828,0.07200000000000001

19.830000000000002,0.07200000000000001

19.832,0.07200000000000001

19.834,0.076

19.836000000000002,0.07200000000000001

19.838,0.068

19.84,0.07200000000000001

19.842,0.07200000000000001

19.844,0.068

19.846,0.068

19.848,0.07200000000000001

19.85,0.068

19.852,0.07200000000000001

19.854,0.076

19.856,0.07200000000000001

19.858,0.076

19.86,0.07200000000000001

19.862000000000002,0.07200000000000001

19.864,0.07200000000000001

19.866,0.07200000000000001

19.868000000000002,0.076

19.87,0.07200000000000001

19.872,0.07200000000000001

19.874,0.07200000000000001

19.876,0.068

19.878,0.068

19.88,0.076

19.882,0.07200000000000001

19.884,0.07200000000000001

19.886,0.07200000000000001

19.888,0.07200000000000001

19.89,0.07200000000000001

19.892,0.07200000000000001

19.894000000000002,0.076

19.896,0.068

19.898,0.07200000000000001

19.900000000000002,0.076

19.902,0.07200000000000001

19.904,0.07200000000000001

19.906,0.07200000000000001

19.908,0.07200000000000001

19.91,0.076

19.912,0.07200000000000001

19.914,0.07200000000000001

19.916,0.076

19.918,0.07200000000000001

19.92,0.07200000000000001

19.922,0.07200000000000001

19.924,0.07200000000000001

19.926000000000002,0.07200000000000001

19.928,0.08

19.93,0.07200000000000001

19.932000000000002,0.07200000000000001

19.934,0.07200000000000001

19.936,0.076

19.938,0.08

19.94,0.076

19.942,0.076

19.944,0.076

19.946,0.076

19.948,0.076

19.95,0.076

19.952,0.076

19.954,0.076

19.956,0.07200000000000001

19.958000000000002,0.084

19.96,0.068

19.962,0.076

19.964000000000002,0.07200000000000001

19.966,0.076

19.968,0.068

19.97,0.076

19.972,0.07200000000000001

19.974,0.07200000000000001

19.976,0.076

19.978,0.07200000000000001

19.98,0.068

19.982,0.068

19.984,0.07200000000000001

19.986,0.076

19.988,0.068

19.990000000000002,0.076

19.992,0.07200000000000001

19.994,0.08

19.996,0.068

19.998,0.076

