####### Preamble ##########################
#	byt_nr=1
#	bit_nr=8
#	encdg=BIN
#	bn_fmt=RI
#	byt_or=MSB
#	nr_pt=10000
#	wfid="Ch1, DC coupling, 5.0E0 V/div, 1.0E0 s/div, 10000 points, Sample mode"
#	pt_fmt=Y
#	xincr=1.0E-3
#	pt_off=0
#	xzero=-5.0E0
#	xunit="s"
#	ymult=2.0E-1
#	yzero=0.0E0
#	yoff=5.7E1
#	yunit="V"
#######  Cursor ##########################
#VBA;IND;"s";-3.68E0;-4.02E0;2.0E-1;3.4E-1;CURSOR1;-5.8E0;-5.6E0;8.8E0;-8.0E0;1.68E1;CURSOR1;"V";CURSOR1;CURSOR1X;-3.24E1;-2.08E1;9.6E0;4.32E1;RECT;0.0E0;0.0E0;0.0E0;0.0E0;0.0E0;0.0E0;9.9E37;9.9E37;9.9E37;9.9E37;9.9E37;9.9E37;9.9E37;9.9E37;9.9E37;9.9E37;9.9E37;9.9E37
#######  Data ##########################
#RIB;REF1;CH1;1;10000;1
# Delete the above lines to open in excel ######

Time [s],volts [V]
0.0,64.0
0.001,67.6
0.002,66.8
0.003,66.6
0.004,66.6
0.005,66.6
0.006,66.6
0.007,64.4
0.008,64.6
0.009000000000000001,64.2
0.01,64.4
0.011,64.6
0.012,64.4
0.013000000000000001,64.4
0.014,64.4
0.015,64.4
0.016,64.2
0.017,64.2
0.018000000000000002,64.4
0.019,64.6
0.02,64.2
0.021,64.2
0.022,64.4
0.023,64.4
0.024,64.4
0.025,64.4
0.026000000000000002,64.2
0.027,64.2
0.028,64.4
0.029,64.4
0.03,64.4
0.031,64.2
0.032,64.4
0.033,64.4
0.034,64.4
0.035,64.2
0.036000000000000004,64.4
0.037,64.0
0.038,64.4
0.039,64.2
0.04,64.2
0.041,64.2
0.042,64.4
0.043000000000000003,64.2
0.044,64.2
0.045,64.2
0.046,64.2
0.047,64.4
0.048,64.2
0.049,64.4
0.05,64.2
0.051000000000000004,64.2
0.052000000000000005,64.2
0.053,64.2
0.054,64.4
0.055,64.2
0.056,64.2
0.057,64.4
0.058,64.0
0.059000000000000004,64.2
0.06,64.2
0.061,64.4
0.062,64.4
0.063,64.2
0.064,64.4
0.065,64.4
0.066,64.2
0.067,64.0
0.068,64.2
0.069,64.2
0.07,64.2
0.07100000000000001,64.2
0.07200000000000001,64.2
0.073,64.0
0.074,64.0
0.075,64.2
0.076,64.0
0.077,64.2
0.078,64.2
0.079,64.2
0.08,64.2
0.081,64.2
0.082,64.2
0.083,64.2
0.084,64.2
0.085,64.4
0.08600000000000001,64.0
0.08700000000000001,64.2
0.088,64.2
0.089,64.0
0.09,64.2
0.091,64.2
0.092,64.4
0.093,64.0
0.094,64.2
0.095,64.2
0.096,64.2
0.097,64.2
0.098,64.2
0.099,64.2
0.1,64.2
0.101,64.0
0.10200000000000001,64.2
0.10300000000000001,64.0
0.10400000000000001,64.2
0.105,64.2
0.106,64.2
0.107,64.2
0.108,64.2
0.109,64.0
0.11,64.2
0.111,64.4
0.112,64.2
0.113,64.2
0.114,64.0
0.115,64.0
0.116,64.0
0.117,64.2
0.11800000000000001,64.0
0.11900000000000001,64.0
0.12,64.0
0.121,64.2
0.122,64.2
0.123,64.2
0.124,64.0
0.125,64.0
0.126,63.8
0.127,64.2
0.128,64.2
0.129,64.2
0.13,64.0
0.131,64.2
0.132,64.2
0.133,64.2
0.134,64.2
0.135,64.2
0.136,64.2
0.137,64.2
0.138,64.0
0.139,64.0
0.14,63.8
0.14100000000000001,64.2
0.14200000000000002,64.2
0.14300000000000002,64.2
0.14400000000000002,64.0
0.145,63.8
0.146,64.0
0.147,64.0
0.148,64.2
0.149,64.2
0.15,64.0
0.151,64.0
0.152,64.0
0.153,64.0
0.154,64.0
0.155,64.0
0.156,64.2
0.157,64.0
0.158,64.0
0.159,64.0
0.16,64.2
0.161,64.0
0.162,64.0
0.163,64.2
0.164,64.2
0.165,64.0
0.166,64.0
0.167,64.2
0.168,63.8
0.169,63.8
0.17,64.2
0.171,64.0
0.17200000000000001,64.0
0.17300000000000001,64.0
0.17400000000000002,64.0
0.17500000000000002,63.8
0.176,63.8
0.177,64.0
0.178,63.8
0.179,63.8
0.18,64.0
0.181,64.2
0.182,64.0
0.183,64.0
0.184,64.2
0.185,63.8
0.186,63.8
0.187,63.8
0.188,64.2
0.189,64.0
0.19,63.8
0.191,64.0
0.192,64.0
0.193,64.2
0.194,64.2
0.195,64.0
0.196,64.0
0.197,64.0
0.198,63.8
0.199,64.0
0.2,63.8
0.201,64.0
0.202,63.8
0.203,64.0
0.20400000000000001,64.0
0.20500000000000002,64.0
0.20600000000000002,64.0
0.20700000000000002,64.0
0.20800000000000002,63.8
0.209,64.0
0.21,63.8
0.211,64.2
0.212,63.8
0.213,64.0
0.214,63.8
0.215,63.8
0.216,64.2
0.217,64.0
0.218,64.0
0.219,63.8
0.22,63.8
0.221,63.8
0.222,63.8
0.223,63.8
0.224,64.0
0.225,64.0
0.226,63.8
0.227,64.0
0.228,64.0
0.229,63.8
0.23,64.0
0.231,64.2
0.232,64.0
0.233,64.0
0.234,64.2
0.23500000000000001,63.8
0.23600000000000002,64.0
0.23700000000000002,63.8
0.23800000000000002,63.8
0.23900000000000002,63.8
0.24,64.0
0.241,64.0
0.242,64.2
0.243,63.8
0.244,63.8
0.245,64.0
0.246,64.0
0.247,64.0
0.248,64.2
0.249,63.8
0.25,63.8
0.251,64.0
0.252,63.8
0.253,64.0
0.254,64.0
0.255,64.0
0.256,63.8
0.257,63.8
0.258,63.6
0.259,63.8
0.26,63.8
0.261,63.8
0.262,64.0
0.263,64.0
0.264,63.8
0.265,63.8
0.266,63.8
0.267,63.8
0.268,63.8
0.269,64.0
0.27,64.0
0.271,63.8
0.272,63.8
0.273,64.0
0.274,63.8
0.275,63.8
0.276,63.8
0.277,63.6
0.278,63.8
0.279,63.8
0.28,63.8
0.281,63.8
0.28200000000000003,64.0
0.28300000000000003,63.8
0.28400000000000003,63.8
0.28500000000000003,63.8
0.28600000000000003,63.8
0.28700000000000003,64.0
0.28800000000000003,63.6
0.289,63.6
0.29,63.8
0.291,63.8
0.292,64.0
0.293,63.8
0.294,63.8
0.295,63.8
0.296,63.8
0.297,64.0
0.298,63.8
0.299,63.6
0.3,63.8
0.301,63.8
0.302,63.8
0.303,63.8
0.304,64.0
0.305,63.8
0.306,63.8
0.307,63.8
0.308,64.0
0.309,63.8
0.31,63.8
0.311,64.0
0.312,63.8
0.313,63.8
0.314,63.6
0.315,64.0
0.316,63.8
0.317,63.8
0.318,63.8
0.319,64.0
0.32,63.8
0.321,64.0
0.322,63.6
0.323,63.8
0.324,63.6
0.325,63.8
0.326,63.8
0.327,64.0
0.328,63.8
0.329,63.8
0.33,64.0
0.331,63.8
0.332,63.8
0.333,63.8
0.334,63.6
0.335,63.8
0.336,63.8
0.337,63.8
0.338,63.8
0.339,63.8
0.34,63.6
0.341,63.8
0.342,63.6
0.343,63.8
0.34400000000000003,63.8
0.34500000000000003,64.0
0.34600000000000003,63.8
0.34700000000000003,63.8
0.34800000000000003,63.8
0.34900000000000003,63.6
0.35000000000000003,63.8
0.35100000000000003,63.8
0.352,63.8
0.353,63.8
0.354,63.8
0.355,63.6
0.356,63.8
0.357,63.8
0.358,63.8
0.359,63.6
0.36,63.8
0.361,63.8
0.362,64.0
0.363,63.8
0.364,63.6
0.365,63.8
0.366,63.6
0.367,63.8
0.368,63.8
0.369,63.8
0.37,63.8
0.371,63.8
0.372,64.0
0.373,63.6
0.374,63.8
0.375,63.8
0.376,63.8
0.377,63.8
0.378,63.8
0.379,63.8
0.38,63.8
0.381,63.8
0.382,63.8
0.383,63.6
0.384,63.8
0.385,63.6
0.386,63.8
0.387,63.8
0.388,63.8
0.389,63.8
0.39,63.8
0.391,63.8
0.392,63.6
0.393,63.8
0.394,64.0
0.395,63.8
0.396,63.8
0.397,63.8
0.398,63.6
0.399,63.8
0.4,63.8
0.401,64.0
0.402,63.6
0.403,63.8
0.404,63.8
0.405,63.8
0.406,63.6
0.40700000000000003,63.8
0.40800000000000003,63.8
0.40900000000000003,63.8
0.41000000000000003,64.0
0.41100000000000003,63.8
0.41200000000000003,63.6
0.41300000000000003,63.8
0.41400000000000003,63.6
0.41500000000000004,64.0
0.41600000000000004,63.6
0.417,63.6
0.418,63.8
0.419,64.0
0.42,63.6
0.421,63.6
0.422,63.8
0.423,63.6
0.424,63.8
0.425,63.8
0.426,63.8
0.427,63.8
0.428,63.6
0.429,63.8
0.43,63.8
0.431,63.8
0.432,63.8
0.433,63.6
0.434,63.8
0.435,63.6
0.436,63.8
0.437,63.8
0.438,63.6
0.439,63.8
0.44,63.8
0.441,63.6
0.442,63.6
0.443,63.8
0.444,63.8
0.445,63.8
0.446,63.8
0.447,63.8
0.448,63.6
0.449,63.6
0.45,63.8
0.451,63.8
0.452,63.8
0.453,63.6
0.454,63.8
0.455,63.6
0.456,63.8
0.457,64.0
0.458,63.8
0.459,63.6
0.46,64.0
0.461,63.8
0.462,63.8
0.463,63.6
0.464,63.8
0.465,63.6
0.466,63.8
0.467,63.8
0.468,63.6
0.46900000000000003,63.6
0.47000000000000003,63.6
0.47100000000000003,63.8
0.47200000000000003,63.6
0.47300000000000003,63.8
0.47400000000000003,63.8
0.47500000000000003,63.8
0.47600000000000003,63.8
0.47700000000000004,63.8
0.47800000000000004,63.8
0.47900000000000004,63.6
0.48,63.8
0.481,63.8
0.482,63.8
0.483,63.6
0.484,63.6
0.485,63.8
0.486,63.6
0.487,64.0
0.488,64.0
0.489,63.8
0.49,63.8
0.491,63.8
0.492,63.8
0.493,63.8
0.494,64.0
0.495,63.8
0.496,63.8
0.497,63.4
0.498,63.8
0.499,63.6
0.5,64.0
0.501,63.8
0.502,64.0
0.503,63.8
0.504,63.8
0.505,63.8
0.506,63.8
0.507,63.8
0.508,63.8
0.509,63.8
0.51,63.8
0.511,63.8
0.512,63.6
0.513,64.0
0.514,63.8
0.515,63.6
0.516,63.8
0.517,63.8
0.518,63.8
0.519,63.8
0.52,63.4
0.521,63.6
0.522,63.8
0.523,63.8
0.524,63.8
0.525,63.8
0.526,63.8
0.527,63.8
0.528,63.8
0.529,63.8
0.53,63.8
0.531,63.8
0.532,63.6
0.533,64.0
0.534,63.8
0.535,63.8
0.536,63.8
0.537,63.8
0.538,64.0
0.539,63.8
0.54,63.6
0.541,63.8
0.542,63.8
0.543,64.0
0.544,64.0
0.545,64.0
0.546,63.8
0.547,63.8
0.548,63.8
0.549,64.0
0.55,63.6
0.551,63.6
0.552,63.8
0.553,63.8
0.554,63.8
0.555,63.6
0.556,63.8
0.557,63.8
0.558,64.0
0.559,63.8
0.56,63.8
0.561,64.2
0.562,63.8
0.5630000000000001,63.8
0.5640000000000001,63.8
0.5650000000000001,64.0
0.5660000000000001,64.0
0.5670000000000001,63.8
0.5680000000000001,63.8
0.5690000000000001,63.8
0.5700000000000001,64.2
0.5710000000000001,63.8
0.5720000000000001,63.8
0.5730000000000001,63.8
0.5740000000000001,63.8
0.5750000000000001,64.0
0.5760000000000001,64.0
0.577,64.0
0.578,63.8
0.579,64.2
0.58,63.8
0.581,63.8
0.582,63.8
0.583,63.8
0.584,64.0
0.585,63.8
0.586,63.8
0.587,64.2
0.588,63.8
0.589,64.0
0.59,63.8
0.591,63.8
0.592,64.0
0.593,64.0
0.594,63.8
0.595,64.0
0.596,63.8
0.597,63.8
0.598,63.8
0.599,64.2
0.6,63.8
0.601,63.8
0.602,64.2
0.603,64.0
0.604,63.8
0.605,63.8
0.606,64.0
0.607,64.0
0.608,64.0
0.609,64.0
0.61,63.6
0.611,63.6
0.612,64.2
0.613,64.2
0.614,63.8
0.615,63.8
0.616,64.0
0.617,64.2
0.618,64.0
0.619,64.0
0.62,63.8
0.621,64.0
0.622,63.8
0.623,64.2
0.624,64.0
0.625,63.8
0.626,63.8
0.627,64.0
0.628,64.2
0.629,64.0
0.63,64.0
0.631,64.0
0.632,64.0
0.633,64.0
0.634,63.8
0.635,64.0
0.636,64.2
0.637,64.2
0.638,64.2
0.639,64.0
0.64,63.8
0.641,63.8
0.642,64.2
0.643,64.2
0.644,64.0
0.645,64.0
0.646,64.0
0.647,64.0
0.648,64.0
0.649,63.8
0.65,63.8
0.651,64.2
0.652,64.0
0.653,64.0
0.654,63.8
0.655,64.2
0.656,64.0
0.657,64.0
0.658,64.2
0.659,64.2
0.66,64.2
0.661,64.0
0.662,64.0
0.663,64.0
0.664,64.2
0.665,64.2
0.666,64.0
0.667,64.0
0.668,64.0
0.669,64.0
0.67,64.0
0.671,63.8
0.672,64.0
0.673,64.0
0.674,63.8
0.675,64.2
0.676,64.2
0.677,63.8
0.678,64.0
0.679,64.2
0.68,64.0
0.681,64.0
0.682,64.0
0.683,64.0
0.684,64.0
0.685,64.2
0.686,64.2
0.687,63.8
0.6880000000000001,64.2
0.6890000000000001,64.2
0.6900000000000001,64.0
0.6910000000000001,64.0
0.6920000000000001,64.2
0.6930000000000001,64.2
0.6940000000000001,64.2
0.6950000000000001,64.0
0.6960000000000001,64.2
0.6970000000000001,64.2
0.6980000000000001,64.2
0.6990000000000001,64.2
0.7000000000000001,64.2
0.7010000000000001,64.0
0.7020000000000001,64.2
0.7030000000000001,64.0
0.704,64.2
0.705,64.0
0.706,64.2
0.707,64.0
0.708,64.0
0.709,64.0
0.71,64.0
0.711,64.2
0.712,64.2
0.713,64.2
0.714,64.0
0.715,64.2
0.716,64.2
0.717,64.2
0.718,64.0
0.719,64.2
0.72,64.0
0.721,64.0
0.722,64.2
0.723,64.2
0.724,64.2
0.725,64.2
0.726,64.2
0.727,64.2
0.728,64.2
0.729,64.4
0.73,64.0
0.731,64.2
0.732,64.2
0.733,64.2
0.734,64.0
0.735,64.2
0.736,64.2
0.737,64.4
0.738,64.2
0.739,64.0
0.74,64.2
0.741,64.2
0.742,64.2
0.743,64.2
0.744,64.2
0.745,64.2
0.746,64.2
0.747,64.4
0.748,64.0
0.749,64.0
0.75,64.2
0.751,64.0
0.752,64.0
0.753,64.0
0.754,64.2
0.755,64.2
0.756,64.2
0.757,64.2
0.758,64.2
0.759,64.4
0.76,64.0
0.761,64.2
0.762,64.2
0.763,64.2
0.764,64.2
0.765,64.2
0.766,64.2
0.767,64.4
0.768,64.4
0.769,64.2
0.77,64.2
0.771,64.2
0.772,64.2
0.773,64.0
0.774,64.2
0.775,64.2
0.776,64.2
0.777,64.2
0.778,64.4
0.779,64.0
0.78,64.2
0.781,64.2
0.782,64.6
0.783,64.0
0.784,64.2
0.785,64.2
0.786,64.2
0.787,64.2
0.788,64.2
0.789,64.4
0.79,64.2
0.791,64.4
0.792,64.2
0.793,64.4
0.794,64.4
0.795,64.4
0.796,64.4
0.797,64.4
0.798,64.2
0.799,64.2
0.8,64.4
0.801,64.4
0.802,64.2
0.803,64.4
0.804,64.2
0.805,64.4
0.806,64.2
0.807,64.4
0.808,64.2
0.809,64.2
0.81,64.4
0.811,64.4
0.812,64.2
0.8130000000000001,64.4
0.8140000000000001,64.4
0.8150000000000001,64.4
0.8160000000000001,64.4
0.8170000000000001,64.0
0.8180000000000001,64.2
0.8190000000000001,64.4
0.8200000000000001,64.2
0.8210000000000001,64.4
0.8220000000000001,64.2
0.8230000000000001,64.6
0.8240000000000001,64.4
0.8250000000000001,64.6
0.8260000000000001,64.6
0.8270000000000001,64.4
0.8280000000000001,64.4
0.8290000000000001,64.2
0.8300000000000001,64.4
0.8310000000000001,64.4
0.8320000000000001,64.2
0.833,64.4
0.834,64.4
0.835,64.4
0.836,64.4
0.837,64.4
0.838,64.2
0.839,64.4
0.84,64.6
0.841,64.6
0.842,64.6
0.843,64.2
0.844,64.4
0.845,64.4
0.846,64.4
0.847,64.4
0.848,64.2
0.849,64.4
0.85,64.4
0.851,64.4
0.852,64.4
0.853,64.6
0.854,64.4
0.855,64.6
0.856,64.4
0.857,64.4
0.858,64.6
0.859,64.2
0.86,64.4
0.861,64.4
0.862,64.4
0.863,64.4
0.864,64.4
0.865,64.4
0.866,64.4
0.867,64.6
0.868,64.4
0.869,64.2
0.87,64.6
0.871,64.4
0.872,64.6
0.873,64.4
0.874,64.6
0.875,64.4
0.876,64.6
0.877,64.6
0.878,64.4
0.879,64.4
0.88,64.4
0.881,64.6
0.882,64.6
0.883,64.6
0.884,64.4
0.885,64.4
0.886,64.6
0.887,64.4
0.888,64.6
0.889,64.6
0.89,64.8
0.891,64.6
0.892,64.6
0.893,64.4
0.894,64.6
0.895,64.4
0.896,64.8
0.897,64.6
0.898,64.6
0.899,64.8
0.9,64.8
0.901,64.6
0.902,64.6
0.903,64.6
0.904,64.6
0.905,64.6
0.906,64.6
0.907,64.6
0.908,64.4
0.909,64.8
0.91,64.8
0.911,64.4
0.912,64.8
0.913,64.6
0.914,64.8
0.915,64.8
0.916,64.6
0.917,64.4
0.918,64.6
0.919,64.8
0.92,64.8
0.921,64.8
0.922,64.6
0.923,64.6
0.924,64.8
0.925,64.8
0.926,64.8
0.927,64.8
0.928,64.4
0.929,64.8
0.93,64.6
0.931,64.6
0.932,64.6
0.933,64.8
0.934,64.6
0.935,64.8
0.936,64.4
0.937,64.6
0.9380000000000001,64.8
0.9390000000000001,64.8
0.9400000000000001,64.6
0.9410000000000001,65.0
0.9420000000000001,64.8
0.9430000000000001,64.8
0.9440000000000001,64.6
0.9450000000000001,64.8
0.9460000000000001,64.8
0.9470000000000001,64.6
0.9480000000000001,64.8
0.9490000000000001,64.8
0.9500000000000001,64.6
0.9510000000000001,64.6
0.9520000000000001,64.8
0.9530000000000001,65.0
0.9540000000000001,64.8
0.9550000000000001,64.8
0.9560000000000001,64.8
0.9570000000000001,64.8
0.9580000000000001,64.6
0.9590000000000001,64.8
0.96,64.6
0.961,64.8
0.962,64.8
0.963,65.0
0.964,64.8
0.965,64.8
0.966,65.0
0.967,64.8
0.968,64.6
0.969,64.8
0.97,64.8
0.971,64.8
0.972,64.8
0.973,65.0
0.974,64.8
0.975,64.8
0.976,64.8
0.977,64.6
0.978,64.8
0.979,64.6
0.98,65.0
0.981,64.8
0.982,64.8
0.983,65.0
0.984,64.8
0.985,65.0
0.986,65.0
0.987,64.8
0.988,65.0
0.989,65.0
0.99,65.2
0.991,65.0
0.992,64.8
0.993,64.8
0.994,64.8
0.995,65.0
0.996,64.8
0.997,65.0
0.998,64.8
0.999,65.0
1.0,64.8
1.0010000000000001,65.0
1.002,65.0
1.0030000000000001,65.0
1.004,65.0
1.0050000000000001,65.0
1.006,64.8
1.0070000000000001,64.8
1.008,65.0
1.0090000000000001,65.0
1.01,65.0
1.0110000000000001,64.8
1.012,65.0
1.0130000000000001,65.0
1.014,65.0
1.0150000000000001,65.0
1.016,65.0
1.0170000000000001,65.0
1.018,64.8
1.0190000000000001,65.2
1.02,65.0
1.0210000000000001,65.2
1.022,65.0
1.0230000000000001,65.0
1.024,65.2
1.025,65.0
1.026,65.0
1.027,65.0
1.028,65.2
1.029,65.0
1.03,65.0
1.031,65.2
1.032,65.2
1.033,65.2
1.034,65.2
1.035,65.0
1.036,65.0
1.037,65.2
1.038,65.2
1.039,65.2
1.04,65.2
1.041,65.0
1.042,65.0
1.043,65.0
1.044,65.2
1.045,65.2
1.046,65.2
1.047,65.2
1.048,65.2
1.049,65.2
1.05,64.8
1.051,65.4
1.052,65.2
1.053,65.2
1.054,65.2
1.055,65.2
1.056,65.2
1.057,65.0
1.058,65.4
1.059,65.2
1.06,65.4
1.061,65.2
1.062,65.2
1.063,65.2
1.064,65.2
1.065,65.2
1.066,65.2
1.067,65.0
1.068,65.2
1.069,65.2
1.07,65.4
1.071,65.2
1.072,65.2
1.073,65.2
1.074,65.2
1.075,65.4
1.076,65.0
1.077,65.0
1.078,65.2
1.079,65.4
1.08,65.4
1.081,65.4
1.082,65.4
1.083,65.2
1.084,65.4
1.085,65.4
1.086,65.2
1.087,65.4
1.088,65.4
1.089,65.4
1.09,65.4
1.091,65.2
1.092,65.4
1.093,65.4
1.094,65.4
1.095,65.4
1.096,65.6
1.097,65.4
1.098,65.6
1.099,65.2
1.1,65.4
1.101,65.4
1.102,65.6
1.103,65.4
1.104,65.2
1.105,65.2
1.106,65.2
1.107,65.6
1.108,65.4
1.109,65.4
1.11,65.4
1.111,65.6
1.112,65.4
1.113,65.6
1.114,65.2
1.115,65.4
1.116,65.6
1.117,65.4
1.118,65.4
1.119,65.6
1.12,65.4
1.121,65.4
1.122,65.6
1.123,65.6
1.124,65.8
1.125,65.6
1.1260000000000001,65.4
1.127,65.8
1.1280000000000001,65.6
1.129,65.4
1.1300000000000001,65.6
1.131,65.8
1.1320000000000001,65.6
1.133,65.8
1.1340000000000001,65.6
1.135,65.6
1.1360000000000001,65.6
1.137,65.6
1.1380000000000001,65.8
1.139,65.8
1.1400000000000001,65.4
1.141,65.6
1.1420000000000001,65.6
1.143,65.6
1.1440000000000001,65.6
1.145,65.6
1.1460000000000001,65.8
1.147,65.6
1.1480000000000001,65.6
1.149,65.6
1.1500000000000001,65.8
1.151,65.8
1.1520000000000001,65.8
1.153,65.8
1.154,65.8
1.155,65.8
1.156,65.6
1.157,65.8
1.158,65.6
1.159,65.8
1.16,65.8
1.161,65.8
1.162,65.6
1.163,65.6
1.164,65.8
1.165,65.6
1.166,65.6
1.167,65.8
1.168,65.8
1.169,65.8
1.17,65.8
1.171,65.8
1.172,65.6
1.173,65.8
1.174,66.0
1.175,65.8
1.176,65.6
1.177,65.6
1.178,65.8
1.179,65.8
1.18,65.8
1.181,66.0
1.182,65.6
1.183,65.8
1.184,65.8
1.185,65.8
1.186,65.8
1.187,66.0
1.188,65.8
1.189,66.0
1.19,65.6
1.191,65.8
1.192,66.2
1.193,65.8
1.194,65.8
1.195,66.0
1.196,66.0
1.197,66.0
1.198,65.8
1.199,66.0
1.2,65.8
1.201,66.0
1.202,66.0
1.203,65.8
1.204,66.0
1.205,65.8
1.206,66.2
1.207,66.0
1.208,65.8
1.209,66.0
1.21,66.0
1.211,66.2
1.212,66.2
1.213,66.0
1.214,66.0
1.215,66.0
1.216,66.0
1.217,66.0
1.218,66.2
1.219,65.8
1.22,66.0
1.221,66.0
1.222,66.2
1.223,66.2
1.224,66.0
1.225,66.0
1.226,66.2
1.227,65.8
1.228,66.0
1.229,66.2
1.23,66.2
1.231,66.0
1.232,66.2
1.233,66.0
1.234,66.0
1.235,66.2
1.236,66.2
1.237,66.4
1.238,66.2
1.239,66.4
1.24,66.2
1.241,66.2
1.242,66.2
1.243,66.2
1.244,66.2
1.245,66.2
1.246,66.2
1.247,66.2
1.248,66.2
1.249,66.4
1.25,66.2
1.2510000000000001,66.2
1.252,66.4
1.2530000000000001,66.4
1.254,66.2
1.2550000000000001,66.0
1.256,66.4
1.2570000000000001,66.2
1.258,66.2
1.2590000000000001,66.2
1.26,66.2
1.2610000000000001,66.0
1.262,66.2
1.2630000000000001,66.4
1.264,66.2
1.2650000000000001,66.2
1.266,66.4
1.2670000000000001,66.2
1.268,66.2
1.2690000000000001,66.4
1.27,66.4
1.2710000000000001,66.2
1.272,66.4
1.2730000000000001,66.4
1.274,66.4
1.2750000000000001,66.2
1.276,66.2
1.2770000000000001,66.4
1.278,66.4
1.2790000000000001,66.4
1.28,66.4
1.281,66.4
1.282,66.6
1.283,66.6
1.284,66.4
1.285,66.4
1.286,66.6
1.287,66.4
1.288,66.4
1.289,66.4
1.29,66.4
1.291,66.4
1.292,66.6
1.293,66.4
1.294,66.6
1.295,66.4
1.296,66.4
1.297,66.6
1.298,66.6
1.299,66.4
1.3,66.6
1.301,66.6
1.302,66.4
1.303,66.4
1.304,66.6
1.305,66.6
1.306,66.6
1.307,66.6
1.308,66.6
1.309,66.6
1.31,66.6
1.311,66.6
1.312,66.6
1.313,66.6
1.314,66.6
1.315,66.4
1.316,66.6
1.317,66.6
1.318,66.6
1.319,66.8
1.32,66.8
1.321,66.8
1.322,66.8
1.323,66.8
1.324,66.6
1.325,66.8
1.326,66.6
1.327,66.8
1.328,66.8
1.329,66.8
1.33,66.8
1.331,66.8
1.332,66.8
1.333,66.8
1.334,66.8
1.335,66.8
1.336,66.8
1.337,66.8
1.338,66.8
1.339,67.0
1.34,67.0
1.341,67.0
1.342,66.8
1.343,66.8
1.344,66.8
1.345,66.6
1.346,66.8
1.347,67.0
1.348,67.0
1.349,66.6
1.35,67.0
1.351,66.8
1.352,67.0
1.353,67.0
1.354,66.6
1.355,66.8
1.356,66.8
1.357,67.0
1.358,66.8
1.359,67.0
1.36,66.8
1.361,67.0
1.362,67.0
1.363,67.0
1.364,67.0
1.365,67.0
1.366,66.8
1.367,67.0
1.368,67.0
1.369,66.8
1.37,66.8
1.371,67.2
1.372,67.2
1.373,67.0
1.374,67.0
1.375,67.0
1.3760000000000001,67.2
1.377,67.0
1.3780000000000001,67.0
1.379,67.0
1.3800000000000001,67.0
1.381,67.0
1.3820000000000001,67.2
1.383,67.2
1.3840000000000001,67.0
1.385,67.0
1.3860000000000001,67.0
1.387,67.2
1.3880000000000001,67.2
1.389,67.2
1.3900000000000001,67.0
1.391,67.2
1.3920000000000001,67.2
1.393,67.2
1.3940000000000001,67.2
1.395,67.2
1.3960000000000001,67.2
1.397,67.2
1.3980000000000001,67.2
1.399,67.4
1.4000000000000001,67.2
1.401,67.2
1.4020000000000001,67.2
1.403,67.2
1.4040000000000001,67.2
1.405,67.2
1.4060000000000001,67.2
1.407,67.4
1.408,67.4
1.409,67.4
1.41,67.2
1.411,67.4
1.412,67.2
1.413,67.2
1.414,67.2
1.415,67.4
1.416,67.2
1.417,67.2
1.418,67.4
1.419,67.2
1.42,67.2
1.421,67.4
1.422,67.2
1.423,67.4
1.424,67.4
1.425,67.4
1.426,67.4
1.427,67.4
1.428,67.6
1.429,67.6
1.43,67.4
1.431,67.4
1.432,67.4
1.433,67.4
1.434,67.4
1.435,67.4
1.436,67.6
1.437,67.4
1.438,67.4
1.439,67.6
1.44,67.6
1.441,67.6
1.442,67.6
1.443,67.6
1.444,67.4
1.445,67.6
1.446,67.4
1.447,67.6
1.448,67.4
1.449,67.6
1.45,67.6
1.451,67.6
1.452,67.8
1.453,67.4
1.454,67.8
1.455,67.6
1.456,67.6
1.457,67.6
1.458,67.6
1.459,67.8
1.46,67.6
1.461,67.6
1.462,67.6
1.463,67.6
1.464,67.6
1.465,67.6
1.466,67.6
1.467,67.6
1.468,67.8
1.469,67.6
1.47,67.8
1.471,67.6
1.472,67.8
1.473,67.8
1.474,67.6
1.475,67.8
1.476,67.6
1.477,67.8
1.478,67.8
1.479,67.8
1.48,67.6
1.481,67.6
1.482,67.8
1.483,68.0
1.484,67.8
1.485,67.8
1.486,67.8
1.487,67.6
1.488,67.8
1.489,67.6
1.49,68.0
1.491,67.8
1.492,67.8
1.493,67.8
1.494,67.6
1.495,68.0
1.496,67.8
1.497,68.0
1.498,68.0
1.499,67.8
1.5,68.0
1.5010000000000001,67.8
1.502,67.8
1.5030000000000001,68.0
1.504,68.0
1.5050000000000001,68.0
1.506,68.0
1.5070000000000001,68.0
1.508,68.0
1.5090000000000001,68.0
1.51,67.8
1.5110000000000001,68.0
1.512,68.0
1.5130000000000001,67.8
1.514,68.0
1.5150000000000001,68.0
1.516,68.0
1.5170000000000001,68.0
1.518,68.0
1.5190000000000001,68.2
1.52,68.2
1.5210000000000001,68.2
1.522,67.8
1.5230000000000001,68.0
1.524,68.2
1.5250000000000001,68.0
1.526,68.0
1.5270000000000001,68.0
1.528,68.0
1.5290000000000001,68.0
1.53,68.2
1.5310000000000001,68.0
1.532,68.2
1.5330000000000001,68.2
1.534,68.2
1.5350000000000001,68.2
1.536,68.2
1.537,68.2
1.538,68.2
1.539,68.2
1.54,68.2
1.541,68.2
1.542,68.4
1.543,68.2
1.544,68.2
1.545,68.2
1.546,68.2
1.547,68.4
1.548,68.2
1.549,68.2
1.55,68.4
1.551,68.4
1.552,68.2
1.553,68.2
1.554,68.4
1.555,68.2
1.556,68.2
1.557,68.4
1.558,68.2
1.559,68.4
1.56,68.2
1.561,68.4
1.562,68.2
1.563,68.2
1.564,68.2
1.565,68.4
1.566,68.4
1.567,68.2
1.568,68.4
1.569,68.6
1.57,68.4
1.571,68.4
1.572,68.2
1.573,68.2
1.574,68.6
1.575,68.4
1.576,68.6
1.577,68.4
1.578,68.4
1.579,68.4
1.58,68.6
1.581,68.4
1.582,68.4
1.583,68.4
1.584,68.4
1.585,68.4
1.586,68.4
1.587,68.4
1.588,68.4
1.589,68.6
1.59,68.6
1.591,68.6
1.592,68.6
1.593,68.6
1.594,68.4
1.595,68.4
1.596,68.6
1.597,68.4
1.598,68.6
1.599,68.6
1.6,68.6
1.601,68.8
1.602,68.6
1.603,68.6
1.604,68.6
1.605,68.6
1.606,68.6
1.607,68.8
1.608,68.6
1.609,68.6
1.61,68.8
1.611,68.8
1.612,68.8
1.613,68.8
1.614,68.6
1.615,68.6
1.616,68.6
1.617,68.8
1.618,68.8
1.619,68.8
1.62,68.8
1.621,68.8
1.622,68.8
1.623,68.8
1.624,68.8
1.625,68.8
1.6260000000000001,68.8
1.627,68.8
1.6280000000000001,68.8
1.629,68.8
1.6300000000000001,68.8
1.631,68.8
1.6320000000000001,68.8
1.633,68.8
1.6340000000000001,68.8
1.635,68.8
1.6360000000000001,68.8
1.637,68.8
1.6380000000000001,68.6
1.639,69.0
1.6400000000000001,69.0
1.641,69.0
1.6420000000000001,68.8
1.643,69.0
1.6440000000000001,69.0
1.645,69.0
1.6460000000000001,69.0
1.647,68.8
1.6480000000000001,69.0
1.649,69.0
1.6500000000000001,69.2
1.651,68.8
1.6520000000000001,69.0
1.653,69.0
1.6540000000000001,69.0
1.655,69.0
1.6560000000000001,69.0
1.657,69.0
1.6580000000000001,69.0
1.659,69.0
1.6600000000000001,69.0
1.661,69.0
1.6620000000000001,69.0
1.663,69.0
1.6640000000000001,69.0
1.665,69.2
1.666,69.0
1.667,69.0
1.668,69.2
1.669,69.2
1.67,69.0
1.671,69.0
1.672,69.0
1.673,69.2
1.674,69.2
1.675,69.2
1.676,69.2
1.677,69.2
1.678,69.2
1.679,69.2
1.68,69.0
1.681,69.2
1.682,69.2
1.683,69.2
1.684,69.2
1.685,69.2
1.686,69.2
1.687,69.2
1.688,69.2
1.689,69.2
1.69,69.2
1.691,69.2
1.692,69.2
1.693,69.4
1.694,69.2
1.695,69.2
1.696,69.2
1.697,69.2
1.698,69.2
1.699,69.2
1.7,69.2
1.701,69.4
1.702,69.4
1.703,69.2
1.704,69.4
1.705,69.2
1.706,69.4
1.707,69.4
1.708,69.4
1.709,69.4
1.71,69.2
1.711,69.4
1.712,69.4
1.713,69.2
1.714,69.2
1.715,69.4
1.716,69.4
1.717,69.4
1.718,69.4
1.719,69.6
1.72,69.4
1.721,69.4
1.722,69.4
1.723,69.4
1.724,69.6
1.725,69.6
1.726,69.4
1.727,69.6
1.728,69.4
1.729,69.4
1.73,69.6
1.731,69.6
1.732,69.6
1.733,69.8
1.734,69.6
1.735,69.6
1.736,69.6
1.737,69.6
1.738,69.6
1.739,69.6
1.74,69.8
1.741,69.8
1.742,69.6
1.743,69.6
1.744,69.6
1.745,69.8
1.746,69.6
1.747,69.8
1.748,69.6
1.749,69.8
1.75,69.6
1.7510000000000001,69.8
1.752,69.6
1.7530000000000001,69.8
1.754,69.8
1.7550000000000001,69.6
1.756,69.6
1.7570000000000001,69.6
1.758,69.8
1.7590000000000001,69.6
1.76,69.6
1.7610000000000001,69.8
1.762,69.8
1.7630000000000001,69.8
1.764,70.0
1.7650000000000001,69.8
1.766,69.8
1.7670000000000001,70.0
1.768,69.8
1.7690000000000001,69.8
1.77,69.6
1.7710000000000001,69.8
1.772,70.0
1.7730000000000001,69.8
1.774,69.8
1.7750000000000001,69.8
1.776,69.8
1.7770000000000001,69.8
1.778,70.0
1.7790000000000001,69.8
1.78,70.0
1.7810000000000001,70.0
1.782,70.0
1.7830000000000001,70.0
1.784,69.8
1.7850000000000001,70.0
1.786,69.8
1.7870000000000001,70.0
1.788,69.8
1.7890000000000001,70.2
1.79,70.0
1.7910000000000001,70.0
1.792,69.8
1.793,70.0
1.794,70.0
1.795,70.0
1.796,70.0
1.797,70.0
1.798,70.0
1.799,69.8
1.8,70.0
1.801,70.2
1.802,70.0
1.803,70.0
1.804,70.0
1.805,70.2
1.806,70.0
1.807,70.2
1.808,70.2
1.809,70.2
1.81,70.2
1.811,70.0
1.812,70.2
1.813,70.0
1.814,70.0
1.815,70.4
1.816,70.2
1.817,70.0
1.818,70.4
1.819,70.2
1.82,70.2
1.821,70.2
1.822,70.0
1.823,70.0
1.824,70.2
1.825,70.0
1.826,70.4
1.827,69.8
1.828,70.2
1.829,70.2
1.83,70.4
1.831,70.4
1.832,70.4
1.833,70.2
1.834,70.2
1.835,70.2
1.836,70.2
1.837,70.2
1.838,70.2
1.839,70.4
1.84,70.4
1.841,70.2
1.842,70.2
1.843,70.4
1.844,70.4
1.845,70.4
1.846,70.4
1.847,70.4
1.848,70.4
1.849,70.2
1.85,70.4
1.851,70.2
1.852,70.4
1.853,70.4
1.854,70.4
1.855,70.2
1.856,70.4
1.857,70.6
1.858,70.4
1.859,70.2
1.86,70.4
1.861,70.2
1.862,70.4
1.863,70.6
1.864,70.4
1.865,70.4
1.866,70.6
1.867,70.6
1.868,70.4
1.869,70.4
1.87,70.4
1.871,70.6
1.872,70.4
1.873,70.6
1.874,70.6
1.875,70.4
1.8760000000000001,70.6
1.877,70.6
1.8780000000000001,70.4
1.879,70.6
1.8800000000000001,70.6
1.881,70.6
1.8820000000000001,70.4
1.883,70.6
1.8840000000000001,70.4
1.885,70.4
1.8860000000000001,70.8
1.887,70.4
1.8880000000000001,70.6
1.889,70.8
1.8900000000000001,70.6
1.891,70.4
1.8920000000000001,70.8
1.893,70.6
1.8940000000000001,70.6
1.895,70.8
1.8960000000000001,70.6
1.897,70.6
1.8980000000000001,70.6
1.899,70.6
1.9000000000000001,70.8
1.901,70.6
1.9020000000000001,70.6
1.903,70.8
1.9040000000000001,70.8
1.905,70.8
1.9060000000000001,70.6
1.907,70.6
1.9080000000000001,70.4
1.909,70.6
1.9100000000000001,70.8
1.911,70.8
1.9120000000000001,70.8
1.913,70.6
1.9140000000000001,70.8
1.915,71.0
1.9160000000000001,70.8
1.917,70.8
1.9180000000000001,70.6
1.919,70.8
1.92,70.8
1.921,70.8
1.922,70.8
1.923,70.8
1.924,70.8
1.925,70.8
1.926,70.8
1.927,70.8
1.928,70.8
1.929,70.8
1.93,70.8
1.931,71.0
1.932,70.8
1.933,70.8
1.934,70.6
1.935,71.0
1.936,70.8
1.937,70.8
1.938,70.8
1.939,70.8
1.94,71.0
1.941,70.8
1.942,71.0
1.943,70.8
1.944,71.0
1.945,71.0
1.946,71.0
1.947,71.0
1.948,70.8
1.949,71.0
1.95,70.8
1.951,70.8
1.952,71.0
1.953,71.2
1.954,70.8
1.955,71.0
1.956,71.0
1.957,71.0
1.958,70.8
1.959,71.0
1.96,71.0
1.961,71.0
1.962,71.0
1.963,71.0
1.964,71.0
1.965,71.0
1.966,71.0
1.967,70.8
1.968,70.8
1.969,70.8
1.97,71.2
1.971,71.0
1.972,71.0
1.973,71.2
1.974,71.0
1.975,71.2
1.976,71.0
1.977,71.0
1.978,71.0
1.979,71.2
1.98,71.2
1.981,71.0
1.982,71.0
1.983,71.0
1.984,71.2
1.985,71.2
1.986,71.2
1.987,71.2
1.988,71.2
1.989,71.0
1.99,71.2
1.991,71.2
1.992,71.0
1.993,71.0
1.994,71.2
1.995,71.0
1.996,71.2
1.997,71.0
1.998,71.2
1.999,71.2
2.0,71.0
2.001,71.0
2.0020000000000002,71.4
2.003,71.2
2.004,71.0
2.005,71.0
2.0060000000000002,71.2
2.007,71.2
2.008,71.2
2.009,71.2
2.0100000000000002,71.4
2.011,71.2
2.012,71.2
2.013,71.4
2.0140000000000002,71.4
2.015,71.4
2.016,71.4
2.017,71.2
2.0180000000000002,71.4
2.019,71.2
2.02,71.4
2.021,71.2
2.0220000000000002,71.4
2.023,71.4
2.024,71.4
2.025,71.0
2.0260000000000002,71.2
2.027,71.0
2.028,71.4
2.029,71.4
2.0300000000000002,71.4
2.031,71.4
2.032,71.2
2.033,71.4
2.0340000000000003,71.4
2.035,71.4
2.036,71.2
2.037,71.4
2.0380000000000003,71.4
2.039,71.4
2.04,71.2
2.041,71.4
2.0420000000000003,71.4
2.043,71.4
2.044,71.6
2.045,71.6
2.0460000000000003,71.4
2.047,71.2
2.048,71.6
2.049,71.4
2.05,71.6
2.051,71.6
2.052,71.6
2.053,71.4
2.054,71.4
2.055,71.4
2.056,71.6
2.057,71.2
2.058,71.6
2.059,71.6
2.06,71.4
2.061,71.6
2.062,71.4
2.063,71.4
2.064,71.6
2.065,71.6
2.066,71.4
2.067,71.6
2.068,71.6
2.069,71.8
2.07,71.4
2.071,71.6
2.072,71.6
2.073,71.6
2.074,71.6
2.075,71.6
2.076,71.6
2.077,71.6
2.078,71.6
2.079,71.6
2.08,71.6
2.081,71.4
2.082,71.6
2.083,71.6
2.084,71.8
2.085,71.6
2.086,71.8
2.087,71.6
2.088,71.6
2.089,71.8
2.09,72.0
2.091,71.8
2.092,72.0
2.093,72.0
2.094,71.6
2.095,71.6
2.096,71.8
2.097,71.8
2.098,71.8
2.099,71.8
2.1,71.6
2.101,71.6
2.102,72.0
2.103,71.6
2.104,71.8
2.105,71.8
2.106,71.8
2.107,71.6
2.108,71.8
2.109,72.0
2.11,72.0
2.111,71.6
2.112,72.0
2.113,71.6
2.114,72.0
2.115,71.8
2.116,71.8
2.117,72.0
2.118,71.8
2.119,71.6
2.12,71.8
2.121,72.0
2.122,72.0
2.123,72.0
2.124,71.8
2.125,71.8
2.126,71.6
2.1270000000000002,72.0
2.128,72.0
2.129,72.0
2.13,71.8
2.1310000000000002,71.8
2.132,71.8
2.133,72.0
2.134,71.8
2.1350000000000002,71.8
2.136,72.0
2.137,71.8
2.138,71.8
2.1390000000000002,71.8
2.14,72.0
2.141,72.0
2.142,72.0
2.1430000000000002,72.0
2.144,72.0
2.145,72.0
2.146,71.8
2.1470000000000002,72.0
2.148,71.8
2.149,72.0
2.15,72.0
2.1510000000000002,72.0
2.152,72.0
2.153,71.8
2.154,72.0
2.1550000000000002,72.0
2.156,71.8
2.157,72.2
2.158,71.8
2.1590000000000003,71.8
2.16,72.0
2.161,72.0
2.162,72.0
2.1630000000000003,72.0
2.164,72.0
2.165,72.0
2.166,71.8
2.1670000000000003,71.8
2.168,72.0
2.169,72.0
2.17,72.0
2.1710000000000003,72.2
2.172,71.8
2.173,72.2
2.174,72.0
2.1750000000000003,72.0
2.176,72.0
2.177,72.2
2.178,72.0
2.179,72.0
2.18,71.8
2.181,72.2
2.182,72.0
2.183,72.2
2.184,72.0
2.185,72.0
2.186,72.0
2.187,72.0
2.188,72.0
2.189,72.2
2.19,72.2
2.191,72.4
2.192,72.2
2.193,72.0
2.194,72.0
2.195,72.0
2.196,72.2
2.197,72.2
2.198,72.0
2.199,71.8
2.2,72.2
2.201,72.2
2.202,72.4
2.203,72.0
2.204,72.0
2.205,72.2
2.206,72.0
2.207,72.4
2.208,72.2
2.209,72.2
2.21,72.4
2.211,72.2
2.212,72.2
2.213,72.2
2.214,72.4
2.215,72.0
2.216,72.2
2.217,72.2
2.218,72.2
2.219,72.2
2.22,72.4
2.221,72.2
2.222,72.2
2.223,72.2
2.224,72.2
2.225,72.2
2.226,72.2
2.227,72.2
2.228,72.4
2.229,72.0
2.23,72.2
2.231,72.2
2.232,72.2
2.233,72.2
2.234,72.2
2.235,72.4
2.236,72.2
2.237,72.0
2.238,72.2
2.239,72.2
2.24,72.4
2.241,72.4
2.242,72.4
2.243,72.4
2.244,72.4
2.245,72.2
2.246,72.4
2.247,72.2
2.248,72.4
2.249,72.2
2.25,72.4
2.251,72.2
2.2520000000000002,72.2
2.253,72.6
2.254,72.2
2.255,72.2
2.2560000000000002,72.4
2.257,72.2
2.258,72.2
2.259,72.4
2.2600000000000002,72.4
2.261,72.2
2.262,72.4
2.263,72.4
2.2640000000000002,72.4
2.265,72.4
2.266,72.2
2.267,72.6
2.2680000000000002,72.4
2.269,72.4
2.27,72.4
2.271,72.4
2.2720000000000002,72.6
2.273,72.4
2.274,72.2
2.275,72.4
2.2760000000000002,72.4
2.277,72.4
2.278,72.4
2.279,72.4
2.2800000000000002,72.4
2.281,72.6
2.282,72.6
2.283,72.6
2.2840000000000003,72.4
2.285,72.4
2.286,72.4
2.287,72.4
2.2880000000000003,72.4
2.289,72.6
2.29,72.6
2.291,72.6
2.2920000000000003,72.4
2.293,72.4
2.294,72.4
2.295,72.6
2.2960000000000003,72.6
2.297,72.4
2.298,72.4
2.299,72.6
2.3000000000000003,72.4
2.301,72.6
2.302,72.4
2.303,72.4
2.3040000000000003,72.4
2.305,72.4
2.306,72.6
2.307,72.6
2.308,72.6
2.309,72.6
2.31,72.4
2.311,72.6
2.312,72.6
2.313,72.6
2.314,72.4
2.315,72.6
2.316,72.4
2.317,72.6
2.318,72.4
2.319,72.6
2.32,72.6
2.321,72.6
2.322,72.6
2.323,72.4
2.324,72.6
2.325,72.6
2.326,72.6
2.327,72.4
2.328,72.6
2.329,72.6
2.33,72.6
2.331,72.6
2.332,72.4
2.333,72.4
2.334,72.6
2.335,72.6
2.336,72.6
2.337,72.6
2.338,72.4
2.339,72.6
2.34,72.8
2.341,72.6
2.342,72.6
2.343,72.6
2.344,72.6
2.345,72.8
2.346,72.6
2.347,72.8
2.348,72.8
2.349,72.6
2.35,72.6
2.351,72.6
2.352,72.6
2.353,72.6
2.354,72.6
2.355,72.8
2.356,72.6
2.357,72.6
2.358,72.8
2.359,72.8
2.36,72.6
2.361,72.6
2.362,72.8
2.363,72.6
2.364,72.6
2.365,72.6
2.366,72.6
2.367,72.6
2.368,72.8
2.369,72.8
2.37,72.6
2.371,72.6
2.372,72.8
2.373,72.6
2.374,72.8
2.375,72.6
2.376,73.0
2.3770000000000002,72.8
2.378,72.6
2.379,72.8
2.38,72.8
2.3810000000000002,72.8
2.382,72.6
2.383,72.6
2.384,73.0
2.3850000000000002,73.0
2.386,72.8
2.387,72.6
2.388,72.8
2.3890000000000002,72.8
2.39,72.8
2.391,73.0
2.392,72.8
2.3930000000000002,72.6
2.394,72.8
2.395,72.8
2.396,72.8
2.3970000000000002,72.8
2.398,73.0
2.399,73.0
2.4,72.8
2.4010000000000002,72.6
2.402,72.6
2.403,72.6
2.404,72.6
2.4050000000000002,73.0
2.406,72.8
2.407,73.0
2.408,72.6
2.4090000000000003,73.0
2.41,72.8
2.411,73.0
2.412,73.0
2.4130000000000003,72.8
2.414,72.8
2.415,72.8
2.416,72.8
2.4170000000000003,72.6
2.418,73.0
2.419,73.0
2.42,72.8
2.4210000000000003,72.6
2.422,72.8
2.423,72.8
2.424,73.0
2.4250000000000003,72.8
2.426,72.8
2.427,72.8
2.428,73.0
2.4290000000000003,72.8
2.43,72.8
2.431,72.8
2.432,72.6
2.433,72.8
2.434,73.0
2.435,72.8
2.436,73.0
2.437,73.0
2.438,72.8
2.439,73.0
2.44,72.8
2.441,72.8
2.442,73.0
2.443,72.6
2.444,73.0
2.445,72.8
2.446,73.0
2.447,73.0
2.448,72.8
2.449,72.8
2.45,72.8
2.451,73.0
2.452,73.0
2.453,72.8
2.454,73.0
2.455,73.0
2.456,72.8
2.457,73.0
2.458,73.0
2.459,72.8
2.46,73.0
2.461,73.0
2.462,72.8
2.463,72.8
2.464,72.8
2.465,73.0
2.466,72.8
2.467,72.8
2.468,73.0
2.469,73.0
2.47,73.0
2.471,73.0
2.472,72.8
2.473,73.0
2.474,72.8
2.475,72.8
2.476,73.0
2.477,72.6
2.478,73.0
2.479,72.8
2.48,73.0
2.481,73.0
2.482,73.0
2.483,73.2
2.484,73.0
2.485,72.8
2.486,72.8
2.487,73.0
2.488,73.2
2.489,73.0
2.49,73.0
2.491,73.0
2.492,72.8
2.493,72.8
2.494,73.0
2.495,72.8
2.496,73.0
2.497,73.0
2.498,73.0
2.499,73.2
2.5,72.8
2.501,72.8
2.5020000000000002,72.8
2.503,73.0
2.504,73.0
2.505,73.0
2.5060000000000002,73.2
2.507,72.8
2.508,73.0
2.509,73.0
2.5100000000000002,73.2
2.511,73.0
2.512,72.8
2.513,73.0
2.5140000000000002,72.8
2.515,73.0
2.516,73.0
2.517,73.0
2.5180000000000002,73.0
2.519,73.0
2.52,72.8
2.521,72.8
2.5220000000000002,73.0
2.523,72.8
2.524,73.0
2.525,73.0
2.5260000000000002,73.0
2.527,72.8
2.528,72.8
2.529,73.0
2.5300000000000002,73.0
2.531,73.0
2.532,73.0
2.533,73.0
2.5340000000000003,73.0
2.535,73.0
2.536,73.0
2.537,73.0
2.5380000000000003,73.0
2.539,73.2
2.54,73.2
2.541,72.8
2.5420000000000003,72.8
2.543,73.2
2.544,73.0
2.545,73.0
2.5460000000000003,73.2
2.547,73.0
2.548,72.8
2.549,73.0
2.5500000000000003,73.0
2.551,73.0
2.552,72.8
2.553,73.2
2.5540000000000003,73.0
2.555,73.0
2.556,73.0
2.557,73.2
2.5580000000000003,73.0
2.559,73.0
2.56,73.2
2.561,72.8
2.562,72.8
2.563,73.0
2.564,73.0
2.565,73.0
2.566,73.0
2.567,73.2
2.568,73.0
2.569,73.2
2.57,73.2
2.571,73.0
2.572,73.0
2.573,73.0
2.574,73.0
2.575,73.0
2.576,72.8
2.577,73.0
2.578,73.0
2.579,73.0
2.58,73.0
2.581,73.0
2.582,73.2
2.583,73.0
2.584,73.0
2.585,73.0
2.586,73.0
2.587,73.2
2.588,73.0
2.589,73.0
2.59,73.0
2.591,73.2
2.592,73.0
2.593,73.2
2.594,73.0
2.595,73.0
2.596,73.0
2.597,73.2
2.598,73.2
2.599,72.8
2.6,73.0
2.601,72.8
2.602,73.2
2.603,73.0
2.604,73.4
2.605,73.0
2.606,73.0
2.607,73.0
2.608,73.0
2.609,73.0
2.61,73.2
2.611,73.0
2.612,73.2
2.613,72.8
2.614,73.0
2.615,73.0
2.616,73.0
2.617,73.2
2.618,73.2
2.619,72.8
2.62,73.0
2.621,73.0
2.622,73.0
2.623,73.0
2.624,73.2
2.625,73.0
2.626,72.8
2.6270000000000002,73.0
2.628,73.2
2.629,73.0
2.63,72.8
2.6310000000000002,73.2
2.632,73.0
2.633,73.0
2.634,72.8
2.6350000000000002,73.2
2.636,73.0
2.637,73.2
2.638,73.2
2.6390000000000002,73.2
2.64,73.0
2.641,72.8
2.642,73.0
2.6430000000000002,73.0
2.644,73.2
2.645,73.0
2.646,73.2
2.6470000000000002,73.0
2.648,73.2
2.649,73.2
2.65,73.0
2.6510000000000002,72.8
2.652,73.0
2.653,72.8
2.654,73.2
2.6550000000000002,73.0
2.656,73.0
2.657,73.0
2.658,73.2
2.6590000000000003,73.0
2.66,73.0
2.661,73.0
2.662,73.0
2.6630000000000003,73.0
2.664,73.0
2.665,73.2
2.666,73.2
2.6670000000000003,73.0
2.668,73.0
2.669,73.0
2.67,73.0
2.6710000000000003,73.2
2.672,73.0
2.673,73.0
2.674,73.0
2.6750000000000003,72.8
2.676,73.0
2.677,73.0
2.678,73.0
2.6790000000000003,73.2
2.68,73.0
2.681,73.2
2.682,73.0
2.6830000000000003,73.0
2.684,73.0
2.685,73.2
2.686,73.2
2.6870000000000003,73.2
2.688,73.0
2.689,72.8
2.69,72.8
2.691,73.2
2.692,73.2
2.693,73.0
2.694,73.0
2.695,73.0
2.696,73.0
2.697,73.0
2.698,73.0
2.699,72.8
2.7,72.8
2.701,73.0
2.702,73.0
2.703,73.2
2.704,73.0
2.705,73.2
2.706,73.0
2.707,73.0
2.708,73.0
2.709,73.2
2.71,73.0
2.711,73.0
2.712,73.4
2.713,73.0
2.714,73.0
2.715,73.2
2.716,73.0
2.717,73.0
2.718,73.0
2.719,72.8
2.72,73.0
2.721,73.0
2.722,73.0
2.723,73.0
2.724,73.0
2.725,73.0
2.726,73.0
2.727,73.0
2.728,73.0
2.729,72.8
2.73,73.0
2.731,73.0
2.732,72.8
2.733,73.0
2.734,73.0
2.735,73.0
2.736,73.0
2.737,73.0
2.738,73.2
2.739,73.0
2.74,72.8
2.741,73.2
2.742,73.0
2.743,73.4
2.744,73.0
2.745,73.0
2.746,72.8
2.747,73.0
2.748,73.0
2.749,73.0
2.75,73.0
2.751,73.0
2.7520000000000002,72.8
2.753,73.0
2.754,73.0
2.755,73.0
2.7560000000000002,73.0
2.757,73.0
2.758,73.0
2.759,73.0
2.7600000000000002,72.8
2.761,72.8
2.762,73.2
2.763,73.0
2.7640000000000002,73.0
2.765,73.0
2.766,73.0
2.767,73.0
2.7680000000000002,73.0
2.769,72.8
2.77,73.0
2.771,73.0
2.7720000000000002,73.0
2.773,73.0
2.774,72.8
2.775,72.8
2.7760000000000002,73.0
2.777,72.8
2.778,72.8
2.779,73.0
2.7800000000000002,72.8
2.781,72.8
2.782,72.8
2.783,73.0
2.7840000000000003,73.0
2.785,73.0
2.786,72.8
2.787,72.8
2.7880000000000003,72.6
2.789,72.8
2.79,73.0
2.791,73.0
2.7920000000000003,72.8
2.793,73.0
2.794,72.8
2.795,72.8
2.7960000000000003,73.0
2.797,72.8
2.798,72.8
2.799,72.8
2.8000000000000003,72.6
2.801,72.8
2.802,73.0
2.803,72.8
2.8040000000000003,73.0
2.805,72.8
2.806,73.0
2.807,73.0
2.8080000000000003,73.0
2.809,72.8
2.81,73.0
2.811,72.6
2.8120000000000003,72.6
2.813,72.8
2.814,72.8
2.815,73.0
2.816,72.8
2.817,72.6
2.818,72.8
2.819,72.8
2.82,73.0
2.821,73.0
2.822,73.0
2.823,72.8
2.824,72.8
2.825,73.0
2.826,72.8
2.827,73.0
2.828,72.8
2.829,73.0
2.83,72.8
2.831,72.6
2.832,72.8
2.833,72.8
2.834,72.8
2.835,72.8
2.836,73.0
2.837,72.8
2.838,73.0
2.839,72.6
2.84,72.8
2.841,72.8
2.842,73.0
2.843,72.8
2.844,72.8
2.845,72.6
2.846,72.8
2.847,72.8
2.848,72.8
2.849,72.6
2.85,72.8
2.851,72.8
2.852,72.6
2.853,72.8
2.854,72.8
2.855,72.8
2.856,72.8
2.857,73.0
2.858,72.8
2.859,72.6
2.86,72.8
2.861,73.0
2.862,72.6
2.863,73.0
2.864,72.8
2.865,72.8
2.866,73.0
2.867,72.8
2.868,72.8
2.869,72.8
2.87,72.6
2.871,72.6
2.872,72.8
2.873,72.6
2.874,72.8
2.875,72.8
2.876,72.8
2.8770000000000002,72.8
2.878,72.8
2.879,72.6
2.88,72.8
2.8810000000000002,72.6
2.882,72.8
2.883,72.8
2.884,72.8
2.8850000000000002,72.8
2.886,72.6
2.887,72.6
2.888,72.6
2.8890000000000002,72.8
2.89,72.8
2.891,72.6
2.892,72.8
2.8930000000000002,72.6
2.894,72.8
2.895,72.8
2.896,72.6
2.8970000000000002,72.6
2.898,72.6
2.899,72.6
2.9,72.8
2.9010000000000002,72.6
2.902,72.8
2.903,72.8
2.904,72.8
2.9050000000000002,72.8
2.906,72.8
2.907,72.6
2.908,72.4
2.9090000000000003,72.8
2.91,72.8
2.911,72.6
2.912,72.6
2.9130000000000003,72.6
2.914,72.8
2.915,72.6
2.916,72.4
2.9170000000000003,72.6
2.918,72.4
2.919,72.6
2.92,72.8
2.9210000000000003,72.6
2.922,72.6
2.923,72.6
2.924,72.4
2.9250000000000003,72.4
2.926,72.6
2.927,72.6
2.928,72.4
2.9290000000000003,72.4
2.93,72.4
2.931,72.4
2.932,72.4
2.9330000000000003,72.6
2.934,72.8
2.935,72.6
2.936,72.6
2.9370000000000003,72.4
2.938,72.4
2.939,72.6
2.94,72.6
2.9410000000000003,72.6
2.942,72.6
2.943,72.6
2.944,72.4
2.945,72.4
2.946,72.6
2.947,72.4
2.948,72.6
2.949,72.4
2.95,72.4
2.951,72.2
2.952,72.4
2.953,72.4
2.954,72.4
2.955,72.4
2.956,72.6
2.957,72.2
2.958,72.6
2.959,72.6
2.96,72.6
2.961,72.2
2.962,72.4
2.963,72.6
2.964,72.2
2.965,72.4
2.966,72.6
2.967,72.6
2.968,72.4
2.969,72.4
2.97,72.4
2.971,72.6
2.972,72.2
2.973,72.4
2.974,72.4
2.975,72.6
2.976,72.4
2.977,72.6
2.978,72.4
2.979,72.4
2.98,72.2
2.981,72.4
2.982,72.6
2.983,72.6
2.984,72.4
2.985,72.4
2.986,72.2
2.987,72.2
2.988,72.4
2.989,72.4
2.99,72.4
2.991,72.2
2.992,72.4
2.993,72.4
2.994,72.6
2.995,72.2
2.996,72.2
2.997,72.2
2.998,72.2
2.999,72.4
3.0,72.4
3.001,72.4
3.0020000000000002,72.2
3.003,72.4
3.004,72.2
3.005,72.4
3.0060000000000002,72.4
3.007,72.2
3.008,72.4
3.009,72.2
3.0100000000000002,72.4
3.011,72.2
3.012,72.4
3.013,72.2
3.0140000000000002,72.4
3.015,72.2
3.016,72.2
3.017,72.2
3.0180000000000002,72.4
3.019,72.2
3.02,72.4
3.021,72.2
3.0220000000000002,72.2
3.023,72.2
3.024,72.4
3.025,72.2
3.0260000000000002,72.2
3.027,72.4
3.028,72.4
3.029,72.0
3.0300000000000002,72.0
3.031,72.4
3.032,72.2
3.033,72.2
3.0340000000000003,72.2
3.035,72.2
3.036,72.2
3.037,72.2
3.0380000000000003,72.4
3.039,72.0
3.04,72.2
3.041,72.0
3.0420000000000003,72.2
3.043,72.2
3.044,72.2
3.045,72.0
3.0460000000000003,72.2
3.047,72.0
3.048,72.4
3.049,72.0
3.0500000000000003,72.2
3.051,72.2
3.052,72.2
3.053,72.0
3.0540000000000003,72.2
3.055,72.2
3.056,72.0
3.057,72.0
3.0580000000000003,72.0
3.059,72.2
3.06,72.0
3.061,72.2
3.0620000000000003,72.4
3.063,72.0
3.064,72.0
3.065,72.0
3.0660000000000003,72.2
3.067,72.2
3.068,72.2
3.069,72.0
3.0700000000000003,72.0
3.071,72.0
3.072,72.0
3.073,72.0
3.074,72.0
3.075,72.0
3.076,72.0
3.077,72.2
3.078,72.2
3.079,72.0
3.08,72.2
3.081,72.0
3.082,72.0
3.083,72.2
3.084,71.8
3.085,71.8
3.086,71.8
3.087,72.0
3.088,72.0
3.089,71.8
3.09,72.0
3.091,72.0
3.092,72.0
3.093,72.0
3.094,71.8
3.095,71.8
3.096,71.8
3.097,71.8
3.098,72.0
3.099,72.0
3.1,72.0
3.101,71.8
3.102,72.0
3.103,72.2
3.104,72.0
3.105,72.0
3.106,71.8
3.107,72.0
3.108,72.0
3.109,72.0
3.11,72.0
3.111,72.0
3.112,72.0
3.113,72.0
3.114,71.8
3.115,71.8
3.116,71.8
3.117,72.0
3.118,72.0
3.119,72.0
3.12,72.0
3.121,71.8
3.122,71.8
3.123,72.0
3.124,71.8
3.125,71.8
3.126,72.0
3.1270000000000002,71.8
3.128,71.8
3.129,71.8
3.13,72.0
3.1310000000000002,72.0
3.132,72.0
3.133,72.0
3.134,72.0
3.1350000000000002,72.0
3.136,71.8
3.137,72.0
3.138,71.6
3.1390000000000002,72.0
3.14,72.0
3.141,72.0
3.142,71.8
3.1430000000000002,71.8
3.144,72.0
3.145,71.6
3.146,71.6
3.1470000000000002,71.8
3.148,71.8
3.149,71.8
3.15,72.0
3.1510000000000002,71.6
3.152,71.6
3.153,71.8
3.154,72.0
3.1550000000000002,71.8
3.156,71.6
3.157,71.6
3.158,72.0
3.1590000000000003,71.6
3.16,71.6
3.161,71.8
3.162,71.6
3.1630000000000003,71.8
3.164,71.8
3.165,71.6
3.166,71.6
3.1670000000000003,71.6
3.168,72.0
3.169,71.6
3.17,71.4
3.1710000000000003,71.6
3.172,71.4
3.173,71.8
3.174,71.6
3.1750000000000003,71.6
3.176,71.6
3.177,71.6
3.178,71.4
3.1790000000000003,71.6
3.18,71.6
3.181,71.6
3.182,71.8
3.1830000000000003,71.6
3.184,71.4
3.185,71.4
3.186,71.8
3.1870000000000003,71.6
3.188,71.4
3.189,71.4
3.19,71.6
3.1910000000000003,71.6
3.192,71.8
3.193,71.4
3.194,71.4
3.1950000000000003,71.6
3.196,71.4
3.197,71.6
3.198,71.6
3.1990000000000003,71.6
3.2,71.4
3.201,71.6
3.202,71.4
3.203,71.6
3.204,71.4
3.205,71.2
3.206,71.4
3.207,71.2
3.208,71.4
3.209,71.4
3.21,71.4
3.211,71.4
3.212,71.4
3.213,71.4
3.214,71.4
3.215,71.2
3.216,71.6
3.217,71.6
3.218,71.6
3.219,71.4
3.22,71.4
3.221,71.4
3.222,71.4
3.223,71.4
3.224,71.4
3.225,71.4
3.226,71.2
3.227,71.4
3.228,71.2
3.229,71.4
3.23,71.2
3.231,71.4
3.232,71.2
3.233,71.4
3.234,71.0
3.235,71.0
3.236,71.4
3.237,71.4
3.238,71.2
3.239,71.2
3.24,71.4
3.241,71.0
3.242,71.2
3.243,71.4
3.244,71.2
3.245,71.2
3.246,71.2
3.247,71.0
3.248,71.0
3.249,71.2
3.25,71.4
3.251,71.2
3.2520000000000002,71.2
3.253,71.4
3.254,71.0
3.255,71.2
3.2560000000000002,71.2
3.257,71.2
3.258,71.2
3.259,71.2
3.2600000000000002,71.2
3.261,71.2
3.262,71.2
3.263,71.2
3.2640000000000002,71.2
3.265,71.2
3.266,71.2
3.267,71.0
3.2680000000000002,71.2
3.269,71.0
3.27,71.2
3.271,71.0
3.2720000000000002,71.2
3.273,71.0
3.274,71.2
3.275,71.2
3.2760000000000002,71.2
3.277,71.0
3.278,71.2
3.279,71.0
3.2800000000000002,71.2
3.281,71.2
3.282,71.2
3.283,70.8
3.2840000000000003,71.0
3.285,71.2
3.286,71.0
3.287,71.0
3.2880000000000003,71.0
3.289,71.0
3.29,71.0
3.291,71.0
3.2920000000000003,70.8
3.293,71.0
3.294,70.8
3.295,71.0
3.2960000000000003,71.0
3.297,71.0
3.298,71.0
3.299,70.8
3.3000000000000003,71.0
3.301,71.0
3.302,71.2
3.303,71.0
3.3040000000000003,70.8
3.305,71.0
3.306,71.0
3.307,71.0
3.3080000000000003,70.8
3.309,71.0
3.31,71.0
3.311,71.0
3.3120000000000003,70.6
3.313,70.6
3.314,70.8
3.315,70.8
3.3160000000000003,70.8
3.317,71.0
3.318,71.0
3.319,70.6
3.3200000000000003,71.0
3.321,70.8
3.322,70.8
3.323,70.8
3.3240000000000003,70.8
3.325,70.8
3.326,70.6
3.327,70.8
3.3280000000000003,71.0
3.329,70.8
3.33,70.8
3.331,70.8
3.332,70.8
3.333,70.8
3.334,70.6
3.335,70.8
3.336,70.8
3.337,70.8
3.338,70.8
3.339,70.8
3.34,70.6
3.341,70.6
3.342,70.8
3.343,70.8
3.344,70.6
3.345,70.8
3.346,70.4
3.347,70.6
3.348,70.8
3.349,70.8
3.35,70.6
3.351,70.8
3.352,70.6
3.353,70.6
3.354,70.6
3.355,70.6
3.356,70.8
3.357,70.6
3.358,70.6
3.359,70.8
3.36,70.8
3.361,70.6
3.362,70.6
3.363,70.4
3.364,70.6
3.365,70.8
3.366,70.8
3.367,70.8
3.368,70.4
3.369,70.6
3.37,70.4
3.371,70.4
3.372,70.4
3.373,70.6
3.374,70.6
3.375,70.6
3.376,70.4
3.3770000000000002,70.6
3.378,70.4
3.379,70.4
3.38,70.6
3.3810000000000002,70.6
3.382,70.4
3.383,70.4
3.384,70.6
3.3850000000000002,70.4
3.386,70.4
3.387,70.4
3.388,70.4
3.3890000000000002,70.4
3.39,70.4
3.391,70.2
3.392,70.2
3.3930000000000002,70.4
3.394,70.4
3.395,70.4
3.396,70.4
3.3970000000000002,70.4
3.398,70.4
3.399,70.6
3.4,70.4
3.4010000000000002,70.4
3.402,70.4
3.403,70.2
3.404,70.4
3.4050000000000002,70.2
3.406,70.2
3.407,70.4
3.408,70.4
3.4090000000000003,70.4
3.41,70.4
3.411,70.2
3.412,70.2
3.4130000000000003,70.2
3.414,70.4
3.415,70.4
3.416,70.4
3.4170000000000003,70.2
3.418,70.2
3.419,70.2
3.42,70.2
3.4210000000000003,70.2
3.422,70.0
3.423,70.4
3.424,70.2
3.4250000000000003,70.2
3.426,70.0
3.427,70.2
3.428,70.2
3.4290000000000003,70.4
3.43,70.4
3.431,70.2
3.432,70.0
3.4330000000000003,70.0
3.434,70.2
3.435,70.0
3.436,70.4
3.4370000000000003,70.0
3.438,70.2
3.439,70.0
3.44,70.0
3.4410000000000003,70.4
3.442,70.0
3.443,70.0
3.444,70.4
3.4450000000000003,70.0
3.446,70.0
3.447,70.0
3.448,70.0
3.4490000000000003,70.0
3.45,70.0
3.451,70.0
3.452,70.0
3.4530000000000003,70.2
3.454,70.0
3.455,70.0
3.456,69.8
3.457,70.0
3.458,70.4
3.459,70.0
3.46,70.0
3.461,70.2
3.462,70.0
3.463,70.0
3.464,70.0
3.465,70.0
3.466,70.0
3.467,69.8
3.468,70.0
3.469,69.6
3.47,70.0
3.471,69.8
3.472,70.0
3.473,70.0
3.474,70.0
3.475,69.8
3.476,69.8
3.477,70.0
3.478,70.0
3.479,69.8
3.48,69.8
3.481,69.6
3.482,69.8
3.483,69.8
3.484,70.0
3.485,69.8
3.486,69.8
3.487,69.8
3.488,69.8
3.489,69.8
3.49,69.8
3.491,69.8
3.492,69.8
3.493,69.6
3.494,69.8
3.495,69.8
3.496,69.8
3.497,69.6
3.498,69.8
3.499,69.8
3.5,69.8
3.501,69.6
3.5020000000000002,69.6
3.503,69.8
3.504,69.6
3.505,69.6
3.5060000000000002,69.8
3.507,69.6
3.508,69.6
3.509,70.0
3.5100000000000002,69.6
3.511,69.4
3.512,69.6
3.513,69.6
3.5140000000000002,69.8
3.515,69.6
3.516,69.6
3.517,69.6
3.5180000000000002,69.6
3.519,69.6
3.52,69.6
3.521,69.4
3.5220000000000002,69.6
3.523,69.4
3.524,69.4
3.525,69.4
3.5260000000000002,69.6
3.527,69.6
3.528,69.6
3.529,69.4
3.5300000000000002,69.6
3.531,69.6
3.532,69.2
3.533,69.4
3.5340000000000003,69.6
3.535,69.6
3.536,69.4
3.537,69.4
3.5380000000000003,69.4
3.539,69.2
3.54,69.2
3.541,69.2
3.5420000000000003,69.4
3.543,69.6
3.544,69.2
3.545,69.4
3.5460000000000003,69.4
3.547,69.4
3.548,69.2
3.549,69.2
3.5500000000000003,69.4
3.551,69.2
3.552,69.2
3.553,69.4
3.5540000000000003,69.2
3.555,69.4
3.556,69.2
3.557,69.2
3.5580000000000003,69.2
3.559,69.2
3.56,69.2
3.561,69.2
3.5620000000000003,69.2
3.563,69.2
3.564,69.2
3.565,69.2
3.5660000000000003,69.0
3.567,69.2
3.568,69.2
3.569,69.2
3.5700000000000003,69.2
3.571,69.4
3.572,69.2
3.573,69.2
3.5740000000000003,69.0
3.575,69.2
3.576,69.2
3.577,69.2
3.5780000000000003,69.0
3.579,69.0
3.58,69.0
3.581,69.0
3.5820000000000003,69.2
3.583,69.0
3.584,69.0
3.585,69.0
3.586,69.2
3.587,69.0
3.588,69.0
3.589,69.0
3.59,69.2
3.591,68.8
3.592,68.8
3.593,69.0
3.594,68.8
3.595,69.0
3.596,68.8
3.597,69.0
3.598,69.0
3.599,69.0
3.6,69.0
3.601,68.8
3.602,69.0
3.603,68.8
3.604,68.8
3.605,69.0
3.606,68.8
3.607,68.8
3.608,69.0
3.609,68.8
3.61,69.0
3.611,69.0
3.612,68.8
3.613,68.8
3.614,68.8
3.615,68.8
3.616,68.8
3.617,69.0
3.618,68.8
3.619,69.0
3.62,68.8
3.621,68.8
3.622,68.8
3.623,68.8
3.624,68.8
3.625,68.8
3.626,68.8
3.6270000000000002,68.8
3.628,68.8
3.629,68.6
3.63,69.0
3.6310000000000002,68.8
3.632,68.8
3.633,68.8
3.634,68.8
3.6350000000000002,68.8
3.636,68.6
3.637,68.8
3.638,68.8
3.6390000000000002,68.6
3.64,68.8
3.641,68.6
3.642,68.6
3.6430000000000002,68.8
3.644,68.8
3.645,68.6
3.646,68.8
3.6470000000000002,68.6
3.648,68.6
3.649,68.6
3.65,68.6
3.6510000000000002,68.6
3.652,68.6
3.653,68.4
3.654,68.6
3.6550000000000002,68.6
3.656,68.6
3.657,68.6
3.658,68.4
3.6590000000000003,68.6
3.66,68.6
3.661,68.4
3.662,68.6
3.6630000000000003,68.6
3.664,68.6
3.665,68.4
3.666,68.4
3.6670000000000003,68.4
3.668,68.4
3.669,68.6
3.67,68.4
3.6710000000000003,68.4
3.672,68.4
3.673,68.4
3.674,68.4
3.6750000000000003,68.4
3.676,68.4
3.677,68.2
3.678,68.4
3.6790000000000003,68.4
3.68,68.2
3.681,68.2
3.682,68.4
3.6830000000000003,68.4
3.684,68.4
3.685,68.4
3.686,68.4
3.6870000000000003,68.4
3.688,68.2
3.689,68.2
3.69,68.2
3.6910000000000003,68.2
3.692,68.4
3.693,68.4
3.694,68.2
3.6950000000000003,68.2
3.696,68.0
3.697,68.2
3.698,68.2
3.6990000000000003,68.2
3.7,68.4
3.701,68.2
3.702,68.2
3.7030000000000003,68.2
3.704,68.2
3.705,68.2
3.706,68.2
3.7070000000000003,68.2
3.708,68.2
3.709,68.2
3.71,68.2
3.7110000000000003,68.2
3.712,68.2
3.713,68.0
3.714,68.0
3.715,68.0
3.716,68.2
3.717,68.0
3.718,68.2
3.719,68.2
3.72,68.2
3.721,68.0
3.722,68.0
3.723,68.0
3.724,68.2
3.725,68.0
3.726,68.2
3.727,68.2
3.728,68.2
3.729,68.0
3.73,67.8
3.731,68.0
3.732,68.2
3.733,68.2
3.734,68.0
3.735,68.0
3.736,68.0
3.737,68.2
3.738,68.0
3.739,68.0
3.74,67.8
3.741,68.0
3.742,68.0
3.743,68.0
3.744,68.0
3.745,68.0
3.746,67.8
3.747,68.0
3.748,68.0
3.749,67.8
3.75,68.0
3.751,68.0
3.7520000000000002,67.8
3.753,67.8
3.754,67.8
3.755,67.8
3.7560000000000002,67.8
3.757,67.8
3.758,67.8
3.759,67.8
3.7600000000000002,67.8
3.761,67.8
3.762,67.8
3.763,67.8
3.7640000000000002,67.6
3.765,67.8
3.766,67.6
3.767,67.8
3.7680000000000002,67.8
3.769,67.8
3.77,67.6
3.771,67.8
3.7720000000000002,67.6
3.773,67.6
3.774,67.8
3.775,67.8
3.7760000000000002,67.8
3.777,67.6
3.778,67.6
3.779,67.6
3.7800000000000002,67.8
3.781,67.6
3.782,67.6
3.783,67.6
3.7840000000000003,67.8
3.785,67.6
3.786,67.6
3.787,67.6
3.7880000000000003,67.6
3.789,67.4
3.79,67.6
3.791,67.6
3.7920000000000003,67.6
3.793,67.6
3.794,67.6
3.795,67.6
3.7960000000000003,67.6
3.797,67.4
3.798,67.6
3.799,67.4
3.8000000000000003,67.6
3.801,67.6
3.802,67.6
3.803,67.6
3.8040000000000003,67.4
3.805,67.6
3.806,67.6
3.807,67.8
3.8080000000000003,67.4
3.809,67.4
3.81,67.4
3.811,67.6
3.8120000000000003,67.4
3.813,67.6
3.814,67.6
3.815,67.6
3.8160000000000003,67.4
3.817,67.4
3.818,67.4
3.819,67.6
3.8200000000000003,67.4
3.821,67.4
3.822,67.4
3.823,67.4
3.8240000000000003,67.4
3.825,67.4
3.826,67.2
3.827,67.2
3.8280000000000003,67.4
3.829,67.2
3.83,67.4
3.831,67.2
3.8320000000000003,67.4
3.833,67.4
3.834,67.4
3.835,67.2
3.8360000000000003,67.2
3.837,67.2
3.838,67.4
3.839,67.2
3.84,67.2
3.841,67.4
3.842,67.2
3.843,67.4
3.844,67.2
3.845,67.2
3.846,67.2
3.847,67.2
3.848,67.2
3.849,67.2
3.85,67.2
3.851,67.0
3.852,67.2
3.853,67.2
3.854,67.2
3.855,67.2
3.856,67.0
3.857,67.2
3.858,67.0
3.859,67.2
3.86,67.0
3.861,67.2
3.862,67.2
3.863,67.2
3.864,67.0
3.865,67.0
3.866,67.0
3.867,67.2
3.868,67.2
3.869,67.2
3.87,67.0
3.871,67.0
3.872,67.0
3.873,67.2
3.874,67.0
3.875,67.0
3.876,66.8
3.8770000000000002,67.0
3.878,67.2
3.879,67.0
3.88,67.0
3.8810000000000002,67.0
3.882,67.0
3.883,67.0
3.884,67.0
3.8850000000000002,66.8
3.886,66.8
3.887,67.0
3.888,67.0
3.8890000000000002,66.6
3.89,66.8
3.891,66.8
3.892,67.0
3.8930000000000002,67.0
3.894,66.8
3.895,66.8
3.896,66.8
3.8970000000000002,66.8
3.898,66.8
3.899,66.8
3.9,66.8
3.9010000000000002,66.8
3.902,66.8
3.903,66.8
3.904,66.8
3.9050000000000002,66.8
3.906,66.8
3.907,66.8
3.908,67.0
3.9090000000000003,66.8
3.91,66.8
3.911,66.8
3.912,66.6
3.9130000000000003,66.8
3.914,66.8
3.915,66.8
3.916,66.8
3.9170000000000003,66.6
3.918,66.8
3.919,66.8
3.92,66.6
3.9210000000000003,66.6
3.922,66.8
3.923,66.6
3.924,66.6
3.9250000000000003,66.8
3.926,66.8
3.927,66.8
3.928,66.6
3.9290000000000003,66.6
3.93,66.6
3.931,66.8
3.932,66.6
3.9330000000000003,66.6
3.934,66.8
3.935,66.8
3.936,66.8
3.9370000000000003,66.6
3.938,66.4
3.939,66.6
3.94,66.4
3.9410000000000003,66.8
3.942,66.6
3.943,66.6
3.944,66.4
3.9450000000000003,66.4
3.946,66.4
3.947,66.4
3.948,66.4
3.9490000000000003,66.4
3.95,66.4
3.951,66.4
3.952,66.4
3.9530000000000003,66.4
3.954,66.2
3.955,66.4
3.956,66.6
3.9570000000000003,66.4
3.958,66.4
3.959,66.4
3.96,66.4
3.9610000000000003,66.4
3.962,66.4
3.963,66.4
3.964,66.4
3.9650000000000003,66.4
3.966,66.6
3.967,66.4
3.968,66.4
3.969,66.4
3.97,66.4
3.971,66.4
3.972,66.4
3.973,66.4
3.974,66.4
3.975,66.4
3.976,66.2
3.977,66.2
3.978,66.4
3.979,66.4
3.98,66.2
3.981,66.2
3.982,66.4
3.983,66.2
3.984,66.4
3.985,66.2
3.986,66.0
3.987,66.0
3.988,66.2
3.989,66.4
3.99,66.2
3.991,66.2
3.992,66.0
3.993,66.2
3.994,66.2
3.995,66.4
3.996,66.4
3.997,66.2
3.998,66.2
3.999,66.2
4.0,66.0
4.001,65.8
4.002,66.2
4.003,66.2
4.0040000000000004,66.2
4.005,66.0
4.006,66.2
4.007,66.2
4.008,66.2
4.009,66.4
4.01,66.2
4.011,66.0
4.0120000000000005,66.0
4.013,66.0
4.014,66.2
4.015,66.2
4.016,65.8
4.017,66.2
4.018,66.0
4.019,66.0
4.0200000000000005,66.0
4.021,66.2
4.022,66.0
4.023,66.2
4.024,66.0
4.025,66.0
4.026,66.0
4.027,66.0
4.0280000000000005,66.2
4.029,66.0
4.03,66.0
4.031,66.0
4.032,66.2
4.033,66.0
4.034,66.0
4.035,66.0
4.0360000000000005,66.0
4.037,65.8
4.038,66.0
4.039,65.6
4.04,65.8
4.041,66.0
4.042,66.0
4.043,65.8
4.0440000000000005,66.0
4.045,66.0
4.046,65.8
4.047,65.6
4.048,66.0
4.049,66.0
4.05,65.8
4.051,65.8
4.0520000000000005,65.8
4.053,65.8
4.054,66.0
4.055,66.0
4.056,65.8
4.057,65.8
4.058,65.8
4.059,65.8
4.0600000000000005,65.8
4.061,65.6
4.062,65.8
4.063,65.8
4.064,65.8
4.065,65.6
4.066,65.8
4.067,65.8
4.0680000000000005,65.8
4.069,65.6
4.07,65.8
4.071,65.6
4.072,65.8
4.073,65.8
4.074,65.6
4.075,65.8
4.0760000000000005,65.6
4.077,65.8
4.078,65.8
4.079,65.6
4.08,65.6
4.081,65.8
4.082,65.8
4.083,65.8
4.0840000000000005,65.6
4.085,65.6
4.086,65.6
4.087,65.6
4.088,65.8
4.089,65.6
4.09,65.8
4.091,65.6
4.0920000000000005,65.6
4.093,65.8
4.094,65.6
4.095,65.8
4.096,65.6
4.097,65.8
4.098,65.6
4.099,65.6
4.1,65.4
4.101,65.8
4.102,65.8
4.103,65.6
4.104,65.6
4.105,65.6
4.106,65.6
4.107,65.8
4.108,65.6
4.109,65.4
4.11,65.6
4.111,65.2
4.112,65.6
4.113,65.6
4.114,65.6
4.115,65.2
4.116,65.6
4.117,65.6
4.118,65.6
4.119,65.4
4.12,65.4
4.121,65.6
4.122,65.6
4.123,65.4
4.124,65.6
4.125,65.4
4.126,65.2
4.127,65.4
4.128,65.2
4.1290000000000004,65.4
4.13,65.4
4.131,65.4
4.132,65.2
4.133,65.4
4.134,65.6
4.135,65.4
4.136,65.4
4.1370000000000005,65.4
4.138,65.2
4.139,65.4
4.14,65.4
4.141,65.4
4.142,65.4
4.143,65.4
4.144,65.4
4.1450000000000005,65.4
4.146,65.4
4.147,65.2
4.148,65.4
4.149,65.2
4.15,65.2
4.151,65.4
4.152,65.2
4.1530000000000005,65.4
4.154,65.4
4.155,65.2
4.156,65.4
4.157,65.4
4.158,65.4
4.159,65.2
4.16,65.0
4.1610000000000005,65.2
4.162,65.4
4.163,65.4
4.164,65.2
4.165,65.2
4.166,65.4
4.167,65.2
4.168,65.2
4.1690000000000005,65.2
4.17,65.4
4.171,65.2
4.172,65.2
4.173,65.2
4.174,65.0
4.175,65.0
4.176,65.2
4.1770000000000005,65.4
4.178,65.0
4.179,65.2
4.18,65.2
4.181,65.4
4.182,65.2
4.183,65.0
4.184,65.0
4.1850000000000005,65.0
4.186,65.0
4.187,65.2
4.188,65.0
4.189,65.2
4.19,65.0
4.191,65.2
4.192,65.2
4.1930000000000005,65.2
4.194,65.2
4.195,65.0
4.196,65.2
4.197,65.0
4.198,65.0
4.199,65.2
4.2,65.0
4.2010000000000005,65.2
4.202,65.0
4.203,64.8
4.204,65.0
4.205,65.0
4.206,65.2
4.207,65.4
4.208,65.0
4.2090000000000005,65.0
4.21,65.0
4.211,65.2
4.212,65.2
4.213,65.2
4.214,65.0
4.215,65.0
4.216,65.0
4.2170000000000005,64.8
4.218,64.8
4.219,65.0
4.22,65.0
4.221,65.2
4.222,65.2
4.223,65.2
4.224,65.0
4.225,64.8
4.226,65.0
4.227,65.0
4.228,64.8
4.229,65.0
4.23,65.0
4.231,64.8
4.232,65.0
4.233,65.0
4.234,65.0
4.235,64.8
4.236,65.0
4.237,64.8
4.238,64.8
4.239,65.0
4.24,65.0
4.241,64.8
4.242,64.8
4.243,65.0
4.244,64.6
4.245,64.8
4.246,64.8
4.247,65.0
4.248,64.8
4.249,65.0
4.25,65.0
4.251,64.8
4.252,64.8
4.253,65.0
4.2540000000000004,64.8
4.255,65.0
4.256,64.8
4.257,64.8
4.258,65.0
4.259,64.8
4.26,64.8
4.261,64.8
4.2620000000000005,64.8
4.263,64.6
4.264,65.0
4.265,64.8
4.266,64.8
4.267,64.6
4.268,64.8
4.269,64.8
4.2700000000000005,64.8
4.271,65.0
4.272,64.8
4.273,64.6
4.274,64.6
4.275,65.0
4.276,65.0
4.277,64.6
4.2780000000000005,64.8
4.279,64.6
4.28,65.0
4.281,64.6
4.282,64.6
4.283,64.8
4.284,64.6
4.285,64.6
4.2860000000000005,64.8
4.287,64.8
4.288,64.8
4.289,64.6
4.29,64.6
4.291,65.0
4.292,64.6
4.293,64.8
4.2940000000000005,64.6
4.295,64.6
4.296,64.6
4.297,64.6
4.298,64.6
4.299,64.6
4.3,64.8
4.301,64.8
4.3020000000000005,64.6
4.303,64.6
4.304,64.6
4.305,64.8
4.306,64.6
4.307,64.8
4.308,64.8
4.309,64.6
4.3100000000000005,64.6
4.311,64.6
4.312,64.4
4.313,64.4
4.314,64.8
4.315,64.6
4.316,64.6
4.317,64.6
4.3180000000000005,64.8
4.319,64.8
4.32,64.8
4.321,64.6
4.322,64.8
4.323,64.6
4.324,64.6
4.325,64.6
4.3260000000000005,64.4
4.327,64.6
4.328,64.6
4.329,64.8
4.33,64.6
4.331,64.6
4.332,64.6
4.333,64.6
4.3340000000000005,64.6
4.335,64.6
4.336,64.6
4.337,64.6
4.338,64.6
4.339,64.6
4.34,64.4
4.341,64.6
4.3420000000000005,64.6
4.343,64.4
4.344,64.4
4.345,64.6
4.346,64.6
4.347,64.6
4.348,64.6
4.349,64.6
4.3500000000000005,64.6
4.351,64.6
4.352,64.6
4.353,64.6
4.354,64.6
4.355,64.8
4.356,64.4
4.357,64.6
4.358,64.4
4.359,64.4
4.36,64.4
4.361,64.4
4.362,64.6
4.363,64.8
4.364,64.6
4.365,64.6
4.366,64.4
4.367,64.6
4.368,64.6
4.369,64.6
4.37,64.6
4.371,64.6
4.372,64.4
4.373,64.2
4.374,64.6
4.375,64.6
4.376,64.4
4.377,64.4
4.378,64.6
4.3790000000000004,64.6
4.38,64.4
4.381,64.2
4.382,64.4
4.383,64.2
4.384,64.4
4.385,64.4
4.386,64.6
4.3870000000000005,64.4
4.388,64.2
4.389,64.6
4.39,64.4
4.391,64.6
4.392,64.4
4.393,64.4
4.394,64.4
4.3950000000000005,64.4
4.396,64.4
4.397,64.4
4.398,64.4
4.399,64.4
4.4,64.4
4.401,64.2
4.402,64.2
4.4030000000000005,64.4
4.404,64.4
4.405,64.4
4.406,64.4
4.407,64.2
4.408,64.2
4.409,64.2
4.41,64.4
4.4110000000000005,64.4
4.412,64.2
4.413,64.6
4.414,64.2
4.415,64.4
4.416,64.4
4.417,64.4
4.418,64.4
4.4190000000000005,64.2
4.42,64.2
4.421,64.4
4.422,64.2
4.423,64.2
4.424,64.4
4.425,64.2
4.426,64.4
4.4270000000000005,64.2
4.428,64.4
4.429,64.2
4.43,64.4
4.431,64.4
4.432,64.4
4.433,64.2
4.434,64.4
4.4350000000000005,64.2
4.436,64.4
4.437,64.2
4.438,64.4
4.439,64.2
4.44,64.4
4.441,64.4
4.442,64.2
4.4430000000000005,64.0
4.444,64.2
4.445,64.2
4.446,64.2
4.447,64.2
4.448,64.4
4.449,64.2
4.45,64.4
4.4510000000000005,64.2
4.452,64.2
4.453,64.4
4.454,64.2
4.455,64.4
4.456,64.2
4.457,64.0
4.458,64.2
4.4590000000000005,64.2
4.46,64.2
4.461,64.4
4.462,64.2
4.463,64.2
4.464,64.2
4.465,64.2
4.466,64.2
4.4670000000000005,64.2
4.468,64.2
4.469,64.4
4.47,64.2
4.471,64.0
4.472,64.2
4.473,64.2
4.474,64.2
4.4750000000000005,64.0
4.476,64.2
4.477,64.2
4.478,64.2
4.479,64.2
4.48,64.0
4.481,64.0
4.482,64.2
4.483,64.0
4.484,64.2
4.485,64.2
4.486,64.4
4.487,63.8
4.488,64.2
4.489,64.2
4.49,64.2
4.491,64.2
4.492,64.2
4.493,64.2
4.494,64.2
4.495,64.0
4.496,64.0
4.497,64.2
4.498,64.2
4.499,64.2
4.5,64.0
4.501,64.2
4.502,64.0
4.503,64.2
4.5040000000000004,64.2
4.505,64.2
4.506,64.0
4.507,64.0
4.508,64.0
4.509,64.0
4.51,64.0
4.511,63.8
4.5120000000000005,64.2
4.513,64.0
4.514,64.0
4.515,64.0
4.516,64.2
4.517,64.0
4.518,64.2
4.519,64.0
4.5200000000000005,64.0
4.521,64.2
4.522,64.0
4.523,64.2
4.524,64.0
4.525,64.2
4.526,64.0
4.527,64.0
4.5280000000000005,64.0
4.529,64.0
4.53,64.2
4.531,64.0
4.532,64.0
4.533,64.0
4.534,64.0
4.535,63.8
4.5360000000000005,64.2
4.537,64.0
4.538,64.0
4.539,64.0
4.54,64.2
4.541,64.0
4.542,64.2
4.543,63.8
4.5440000000000005,64.2
4.545,64.0
4.546,64.2
4.547,64.2
4.548,63.8
4.549,64.2
4.55,64.2
4.551,64.0
4.5520000000000005,64.2
4.553,64.2
4.554,64.0
4.555,64.2
4.556,64.0
4.557,64.0
4.558,64.0
4.559,64.2
4.5600000000000005,64.0
4.561,64.2
4.562,63.8
4.563,64.2
4.564,63.8
4.565,64.2
4.566,63.8
4.567,64.2
4.5680000000000005,64.0
4.569,64.0
4.57,63.8
4.571,63.8
4.572,63.8
4.573,64.0
4.574,64.0
4.575,64.0
4.5760000000000005,64.2
4.577,64.2
4.578,64.0
4.579,64.0
4.58,64.0
4.581,64.0
4.582,64.0
4.583,64.0
4.5840000000000005,64.2
4.585,64.2
4.586,64.0
4.587,64.2
4.588,64.2
4.589,64.2
4.59,64.0
4.591,63.8
4.5920000000000005,64.0
4.593,63.8
4.594,64.0
4.595,64.0
4.596,64.0
4.597,64.0
4.598,63.8
4.599,63.8
4.6000000000000005,63.8
4.601,63.8
4.602,64.0
4.603,64.2
4.604,64.0
4.605,63.8
4.606,64.0
4.607,64.0
4.6080000000000005,64.0
4.609,64.0
4.61,64.0
4.611,64.0
4.612,64.0
4.613,64.0
4.614,63.8
4.615,64.0
4.616,64.0
4.617,64.0
4.618,64.2
4.619,64.2
4.62,64.0
4.621,63.8
4.622,63.8
4.623,63.8
4.624,64.0
4.625,63.8
4.626,63.8
4.627,63.6
4.628,63.8
4.6290000000000004,63.8
4.63,63.8
4.631,64.0
4.632,64.0
4.633,63.6
4.634,63.8
4.635,64.0
4.636,64.2
4.6370000000000005,63.8
4.638,64.0
4.639,64.0
4.64,63.8
4.641,63.8
4.642,63.8
4.643,64.0
4.644,63.8
4.6450000000000005,63.8
4.646,63.8
4.647,63.8
4.648,64.0
4.649,64.0
4.65,64.0
4.651,63.8
4.652,63.8
4.6530000000000005,64.0
4.654,63.8
4.655,63.8
4.656,63.8
4.657,63.8
4.658,64.0
4.659,63.8
4.66,63.8
4.6610000000000005,63.8
4.662,64.0
4.663,63.6
4.664,63.8
4.665,64.0
4.666,63.8
4.667,64.0
4.668,63.8
4.6690000000000005,63.8
4.67,63.8
4.671,63.8
4.672,64.0
4.673,63.8
4.674,64.0
4.675,63.8
4.676,64.0
4.6770000000000005,63.8
4.678,63.6
4.679,64.0
4.68,63.6
4.681,63.8
4.682,63.8
4.683,63.8
4.684,63.8
4.6850000000000005,63.8
4.686,64.0
4.687,63.8
4.688,64.0
4.689,64.0
4.69,63.8
4.691,63.8
4.692,63.8
4.6930000000000005,63.8
4.694,63.8
4.695,64.0
4.696,63.8
4.697,63.8
4.698,63.6
4.699,63.8
4.7,63.6
4.7010000000000005,63.8
4.702,64.2
4.703,63.8
4.704,63.8
4.705,63.8
4.706,63.6
4.707,63.6
4.708,63.8
4.7090000000000005,63.6
4.71,64.0
4.711,63.8
4.712,63.8
4.713,63.6
4.714,63.8
4.715,63.8
4.716,63.8
4.7170000000000005,63.8
4.718,64.0
4.719,63.8
4.72,63.6
4.721,63.8
4.722,63.8
4.723,63.8
4.724,63.8
4.7250000000000005,63.8
4.726,63.6
4.727,63.6
4.728,63.8
4.729,63.8
4.73,63.6
4.731,63.8
4.732,63.6
4.7330000000000005,63.8
4.734,63.8
4.735,64.0
4.736,63.8
4.737,63.8
4.738,63.8
4.739,63.8
4.74,63.6
4.741,63.6
4.742,63.8
4.743,63.8
4.744,63.8
4.745,63.8
4.746,63.8
4.747,63.8
4.748,63.8
4.749,63.6
4.75,63.8
4.751,63.8
4.752,63.6
4.753,63.8
4.7540000000000004,63.6
4.755,63.8
4.756,63.6
4.757,63.8
4.758,63.8
4.759,63.6
4.76,63.8
4.761,63.8
4.7620000000000005,63.6
4.763,63.8
4.764,63.8
4.765,64.0
4.766,63.8
4.767,63.6
4.768,63.6
4.769,63.4
4.7700000000000005,64.0
4.771,63.8
4.772,63.8
4.773,63.6
4.774,63.8
4.775,63.8
4.776,63.8
4.777,63.6
4.7780000000000005,63.6
4.779,63.6
4.78,63.8
4.781,63.8
4.782,63.8
4.783,63.8
4.784,63.6
4.785,63.8
4.7860000000000005,64.0
4.787,63.8
4.788,63.8
4.789,63.6
4.79,63.8
4.791,63.6
4.792,63.6
4.793,63.6
4.7940000000000005,63.8
4.795,63.8
4.796,63.8
4.797,63.6
4.798,63.8
4.799,63.6
4.8,63.8
4.801,63.8
4.8020000000000005,64.0
4.803,63.6
4.804,63.6
4.805,63.8
4.806,63.8
4.807,63.6
4.808,63.8
4.809,63.8
4.8100000000000005,63.8
4.811,63.6
4.812,63.6
4.813,63.8
4.814,63.8
4.815,63.8
4.816,64.0
4.817,63.8
4.8180000000000005,63.8
4.819,63.6
4.82,63.8
4.821,63.6
4.822,63.8
4.823,63.6
4.824,63.8
4.825,63.4
4.8260000000000005,63.6
4.827,63.8
4.828,63.8
4.829,63.8
4.83,63.8
4.831,63.6
4.832,63.6
4.833,63.8
4.8340000000000005,63.8
4.835,63.8
4.836,64.0
4.837,63.8
4.838,63.6
4.839,63.6
4.84,63.6
4.841,64.0
4.8420000000000005,63.8
4.843,63.8
4.844,63.8
4.845,63.8
4.846,63.8
4.847,63.8
4.848,63.8
4.849,63.8
4.8500000000000005,64.0
4.851,63.8
4.852,64.0
4.853,63.6
4.854,63.8
4.855,63.6
4.856,63.8
4.857,63.6
4.8580000000000005,63.8
4.859,63.8
4.86,63.8
4.861,63.6
4.862,63.6
4.863,63.8
4.864,64.0
4.865,64.0
4.866,63.8
4.867,63.6
4.868,63.8
4.869,63.6
4.87,64.2
4.871,63.6
4.872,64.0
4.873,63.8
4.874,63.8
4.875,63.8
4.876,63.6
4.877,63.6
4.878,63.6
4.8790000000000004,63.8
4.88,64.0
4.881,64.0
4.882,63.8
4.883,63.6
4.884,64.0
4.885,63.8
4.886,64.0
4.8870000000000005,63.8
4.888,63.8
4.889,64.0
4.89,63.6
4.891,63.6
4.892,63.8
4.893,63.8
4.894,63.8
4.8950000000000005,64.0
4.896,63.8
4.897,64.0
4.898,63.8
4.899,63.8
4.9,64.0
4.901,63.8
4.902,63.8
4.9030000000000005,63.8
4.904,63.8
4.905,64.0
4.906,63.8
4.907,63.6
4.908,64.0
4.909,63.8
4.91,64.0
4.9110000000000005,63.8
4.912,64.0
4.913,63.8
4.914,64.0
4.915,64.0
4.916,63.8
4.917,64.0
4.918,63.6
4.9190000000000005,63.8
4.92,63.8
4.921,63.8
4.922,63.8
4.923,64.0
4.924,63.8
4.925,63.8
4.926,63.8
4.9270000000000005,63.8
4.928,64.0
4.929,63.8
4.93,63.6
4.931,63.8
4.932,64.0
4.933,63.8
4.934,63.8
4.9350000000000005,63.8
4.936,64.2
4.937,63.8
4.938,63.6
4.939,63.8
4.94,63.8
4.941,63.8
4.942,63.8
4.9430000000000005,64.0
4.944,64.0
4.945,63.8
4.946,63.8
4.947,64.0
4.948,63.8
4.949,63.8
4.95,64.0
4.9510000000000005,63.8
4.952,63.8
4.953,63.8
4.954,63.8
4.955,63.8
4.956,63.8
4.957,63.8
4.958,64.0
4.9590000000000005,63.8
4.96,63.8
4.961,63.8
4.962,63.8
4.963,64.2
4.964,63.8
4.965,63.8
4.966,63.8
4.9670000000000005,63.6
4.968,64.0
4.969,64.0
4.97,63.8
4.971,63.8
4.972,63.8
4.973,64.0
4.974,64.0
4.9750000000000005,63.8
4.976,64.0
4.977,64.0
4.978,63.6
4.979,63.8
4.98,63.8
4.981,64.0
4.982,63.8
4.9830000000000005,63.8
4.984,63.8
4.985,64.2
4.986,63.8
4.987,63.6
4.988,64.0
4.989,63.8
4.99,63.8
4.9910000000000005,63.8
4.992,64.0
4.993,64.0
4.994,64.0
4.995,63.6
4.996,63.8
4.997,63.8
4.998,63.8
4.999,64.0
5.0,63.8
5.001,63.8
5.002,64.0
5.003,63.8
5.0040000000000004,64.2
5.005,63.8
5.006,64.0
5.007,64.0
5.008,63.8
5.009,64.0
5.01,64.0
5.011,64.0
5.0120000000000005,64.2
5.013,63.8
5.014,64.0
5.015,64.2
5.016,64.2
5.017,63.6
5.018,64.2
5.019,64.0
5.0200000000000005,64.2
5.021,64.0
5.022,64.0
5.023,63.8
5.024,63.8
5.025,64.0
5.026,64.0
5.027,64.0
5.0280000000000005,63.8
5.029,63.8
5.03,64.0
5.031,64.2
5.032,64.2
5.033,63.6
5.034,64.0
5.035,64.0
5.0360000000000005,63.8
5.037,64.0
5.038,63.8
5.039,64.2
5.04,63.8
5.041,64.0
5.042,64.0
5.043,63.8
5.0440000000000005,64.2
5.045,64.0
5.046,64.2
5.047,64.2
5.048,64.0
5.049,64.2
5.05,64.2
5.051,64.0
5.0520000000000005,64.2
5.053,64.0
5.054,64.2
5.055,64.0
5.056,64.2
5.057,64.2
5.058,64.0
5.059,63.8
5.0600000000000005,64.2
5.061,64.0
5.062,64.2
5.063,64.0
5.064,64.0
5.065,63.8
5.066,64.0
5.067,64.2
5.0680000000000005,64.2
5.069,64.0
5.07,64.0
5.071,64.2
5.072,64.0
5.073,64.2
5.074,64.0
5.075,64.0
5.0760000000000005,64.0
5.077,64.0
5.078,64.2
5.079,64.2
5.08,64.2
5.081,64.2
5.082,64.2
5.083,64.2
5.0840000000000005,64.2
5.085,64.2
5.086,64.2
5.087,64.2
5.088,64.0
5.089,64.2
5.09,64.0
5.091,64.0
5.0920000000000005,64.2
5.093,64.2
5.094,64.0
5.095,63.8
5.096,64.0
5.097,64.2
5.098,64.2
5.099,64.2
5.1000000000000005,64.2
5.101,64.0
5.102,64.0
5.103,64.0
5.104,64.0
5.105,64.0
5.106,64.2
5.107,64.0
5.1080000000000005,64.0
5.109,64.0
5.11,64.2
5.111,64.0
5.112,64.2
5.113,64.2
5.114,64.2
5.115,64.2
5.1160000000000005,64.0
5.117,64.2
5.118,64.0
5.119,64.2
5.12,64.4
5.121,64.2
5.122,64.0
5.123,64.2
5.124,64.2
5.125,64.2
5.126,64.0
5.127,64.2
5.128,64.0
5.1290000000000004,64.0
5.13,64.4
5.131,64.2
5.132,64.2
5.133,64.2
5.134,64.2
5.135,64.2
5.136,64.0
5.1370000000000005,64.0
5.138,64.2
5.139,64.0
5.14,64.2
5.141,64.2
5.142,64.2
5.143,64.2
5.144,64.4
5.1450000000000005,64.2
5.146,64.4
5.147,64.4
5.148,64.2
5.149,64.2
5.15,64.2
5.151,64.2
5.152,64.2
5.1530000000000005,64.2
5.154,64.2
5.155,64.2
5.156,64.2
5.157,64.2
5.158,64.2
5.159,64.2
5.16,64.2
5.1610000000000005,64.4
5.162,64.2
5.163,64.4
5.164,64.0
5.165,64.0
5.166,64.4
5.167,64.2
5.168,64.0
5.1690000000000005,64.2
5.17,64.4
5.171,64.2
5.172,64.2
5.173,64.0
5.174,64.2
5.175,64.2
5.176,64.2
5.1770000000000005,64.2
5.178,64.2
5.179,64.2
5.18,64.2
5.181,64.4
5.182,64.4
5.183,64.4
5.184,64.2
5.1850000000000005,64.2
5.186,64.4
5.187,64.2
5.188,64.2
5.189,64.2
5.19,64.2
5.191,64.4
5.192,64.2
5.1930000000000005,64.4
5.194,64.2
5.195,64.2
5.196,64.2
5.197,64.4
5.198,64.4
5.199,64.2
5.2,64.2
5.2010000000000005,64.2
5.202,64.6
5.203,64.4
5.204,64.2
5.205,64.4
5.206,64.2
5.207,64.2
5.208,64.2
5.2090000000000005,64.4
5.21,64.2
5.211,64.4
5.212,64.4
5.213,64.6
5.214,64.2
5.215,64.2
5.216,64.4
5.2170000000000005,64.4
5.218,64.4
5.219,64.4
5.22,64.4
5.221,64.4
5.222,64.4
5.223,64.6
5.224,64.4
5.2250000000000005,64.2
5.226,64.4
5.227,64.2
5.228,64.2
5.229,64.4
5.23,64.2
5.231,64.6
5.232,64.4
5.2330000000000005,64.4
5.234,64.2
5.235,64.4
5.236,64.4
5.237,64.6
5.238,64.4
5.239,64.4
5.24,64.6
5.2410000000000005,64.4
5.242,64.4
5.243,64.4
5.244,64.6
5.245,64.6
5.246,64.4
5.247,64.6
5.248,64.4
5.249,64.4
5.25,64.4
5.251,64.4
5.252,64.6
5.253,64.4
5.2540000000000004,64.4
5.255,64.6
5.256,64.6
5.257,64.4
5.258,64.4
5.259,64.6
5.26,64.6
5.261,64.6
5.2620000000000005,64.4
5.263,64.6
5.264,64.4
5.265,64.6
5.266,64.6
5.267,64.2
5.268,64.4
5.269,64.6
5.2700000000000005,64.4
5.271,64.4
5.272,64.4
5.273,64.6
5.274,64.6
5.275,64.4
5.276,64.6
5.277,64.6
5.2780000000000005,64.6
5.279,64.4
5.28,64.6
5.281,64.6
5.282,64.8
5.283,64.8
5.284,64.4
5.285,64.4
5.2860000000000005,64.6
5.287,64.6
5.288,64.4
5.289,64.6
5.29,64.6
5.291,64.6
5.292,64.6
5.293,64.6
5.2940000000000005,64.4
5.295,64.6
5.296,64.6
5.297,64.8
5.298,64.6
5.299,64.4
5.3,64.6
5.301,64.8
5.3020000000000005,64.8
5.303,64.6
5.304,64.6
5.305,64.8
5.306,64.6
5.307,64.6
5.308,64.8
5.309,64.8
5.3100000000000005,64.8
5.311,64.8
5.312,64.8
5.313,64.8
5.314,64.6
5.315,64.8
5.316,64.8
5.317,64.8
5.3180000000000005,64.8
5.319,64.6
5.32,64.6
5.321,64.6
5.322,64.8
5.323,64.8
5.324,64.8
5.325,64.8
5.3260000000000005,64.6
5.327,64.6
5.328,64.8
5.329,64.8
5.33,64.6
5.331,65.0
5.332,65.0
5.333,64.6
5.3340000000000005,64.6
5.335,64.8
5.336,64.8
5.337,64.6
5.338,64.8
5.339,64.6
5.34,64.8
5.341,64.8
5.3420000000000005,65.0
5.343,64.8
5.344,64.8
5.345,65.0
5.346,64.8
5.347,64.8
5.348,64.8
5.349,64.8
5.3500000000000005,64.8
5.351,64.8
5.352,64.8
5.353,65.0
5.354,65.0
5.355,64.8
5.356,64.8
5.357,64.8
5.3580000000000005,65.0
5.359,64.8
5.36,65.0
5.361,64.8
5.362,64.8
5.363,64.6
5.364,64.8
5.365,65.0
5.3660000000000005,64.6
5.367,65.0
5.368,65.0
5.369,64.8
5.37,65.0
5.371,65.0
5.372,64.8
5.373,64.8
5.3740000000000006,64.8
5.375,64.8
5.376,65.0
5.377,65.0
5.378,64.8
5.3790000000000004,65.0
5.38,65.0
5.381,65.0
5.382,64.8
5.383,64.6
5.384,65.0
5.385,64.8
5.386,64.8
5.3870000000000005,64.8
5.388,65.2
5.389,65.0
5.39,65.0
5.391,64.8
5.392,64.6
5.393,65.0
5.394,65.2
5.3950000000000005,65.0
5.396,65.0
5.397,65.0
5.398,64.8
5.399,65.0
5.4,64.8
5.401,65.0
5.402,64.8
5.4030000000000005,65.2
5.404,65.0
5.405,65.0
5.406,65.0
5.407,65.0
5.408,65.0
5.409,65.0
5.41,65.2
5.4110000000000005,65.2
5.412,65.0
5.413,65.0
5.414,65.2
5.415,65.0
5.416,65.2
5.417,65.2
5.418,65.0
5.4190000000000005,65.0
5.42,65.0
5.421,65.0
5.422,65.0
5.423,65.0
5.424,65.2
5.425,64.8
5.426,65.0
5.4270000000000005,65.2
5.428,65.0
5.429,65.0
5.43,65.2
5.431,65.2
5.432,65.0
5.433,65.0
5.434,65.2
5.4350000000000005,65.2
5.436,65.0
5.437,65.0
5.438,65.2
5.439,65.0
5.44,65.2
5.441,65.2
5.442,65.2
5.4430000000000005,65.2
5.444,65.4
5.445,65.4
5.446,65.2
5.447,65.0
5.448,65.0
5.449,65.2
5.45,65.0
5.4510000000000005,65.0
5.452,65.2
5.453,65.4
5.454,65.4
5.455,65.0
5.456,65.4
5.457,65.2
5.458,65.4
5.4590000000000005,65.4
5.46,65.2
5.461,65.2
5.462,65.2
5.463,65.4
5.464,65.4
5.465,65.2
5.466,65.2
5.4670000000000005,65.4
5.468,65.4
5.469,65.4
5.47,65.2
5.471,65.2
5.472,65.0
5.473,65.2
5.474,65.4
5.4750000000000005,65.2
5.476,65.4
5.477,65.4
5.478,65.4
5.479,65.4
5.48,65.4
5.481,65.4
5.482,65.4
5.4830000000000005,65.4
5.484,65.4
5.485,65.2
5.486,65.2
5.487,65.4
5.488,65.4
5.489,65.8
5.49,65.2
5.4910000000000005,65.2
5.492,65.4
5.493,65.6
5.494,65.6
5.495,65.4
5.496,65.4
5.497,65.4
5.498,65.4
5.4990000000000006,65.6
5.5,65.4
5.501,65.2
5.502,65.6
5.503,65.4
5.5040000000000004,65.2
5.505,65.4
5.506,65.4
5.507,65.6
5.508,65.6
5.509,65.4
5.51,65.6
5.511,65.6
5.5120000000000005,65.4
5.513,65.4
5.514,65.4
5.515,65.6
5.516,65.8
5.517,65.4
5.518,65.2
5.519,65.4
5.5200000000000005,65.6
5.521,65.6
5.522,65.8
5.523,65.6
5.524,65.6
5.525,65.6
5.526,65.8
5.527,65.8
5.5280000000000005,65.4
5.529,65.6
5.53,65.8
5.531,65.6
5.532,65.6
5.533,65.6
5.534,65.8
5.535,65.6
5.5360000000000005,65.8
5.537,65.8
5.538,65.6
5.539,65.8
5.54,65.8
5.541,65.8
5.542,65.6
5.543,65.6
5.5440000000000005,65.8
5.545,65.8
5.546,65.6
5.547,65.8
5.548,65.8
5.549,66.0
5.55,65.8
5.551,65.8
5.5520000000000005,65.8
5.553,65.8
5.554,65.8
5.555,65.8
5.556,65.8
5.557,65.8
5.558,65.8
5.559,65.6
5.5600000000000005,65.6
5.561,65.6
5.562,65.8
5.563,66.0
5.564,65.6
5.565,65.6
5.566,65.8
5.567,66.0
5.5680000000000005,65.8
5.569,65.8
5.57,65.6
5.571,65.8
5.572,65.6
5.573,65.8
5.574,66.0
5.575,66.0
5.5760000000000005,65.8
5.577,65.8
5.578,66.0
5.579,65.8
5.58,66.0
5.581,65.8
5.582,66.0
5.583,65.8
5.5840000000000005,66.0
5.585,66.0
5.586,66.0
5.587,65.8
5.588,66.0
5.589,65.8
5.59,66.0
5.591,65.8
5.5920000000000005,66.0
5.593,66.0
5.594,65.8
5.595,65.8
5.596,66.0
5.597,66.0
5.598,66.0
5.599,66.0
5.6000000000000005,65.8
5.601,66.0
5.602,66.0
5.603,66.0
5.604,66.0
5.605,66.0
5.606,66.0
5.607,66.2
5.6080000000000005,66.2
5.609,66.2
5.61,66.2
5.611,66.0
5.612,66.2
5.613,66.0
5.614,66.0
5.615,66.0
5.6160000000000005,66.0
5.617,66.0
5.618,66.0
5.619,66.4
5.62,66.0
5.621,66.0
5.622,66.2
5.623,66.2
5.6240000000000006,66.0
5.625,66.2
5.626,66.4
5.627,66.0
5.628,66.2
5.6290000000000004,66.4
5.63,66.0
5.631,66.2
5.632,66.0
5.633,66.2
5.634,66.0
5.635,66.2
5.636,66.4
5.6370000000000005,66.0
5.638,66.2
5.639,66.4
5.64,66.2
5.641,66.4
5.642,66.4
5.643,66.2
5.644,66.4
5.6450000000000005,66.2
5.646,66.2
5.647,66.4
5.648,66.4
5.649,66.2
5.65,66.4
5.651,66.4
5.652,66.4
5.6530000000000005,66.2
5.654,66.4
5.655,66.4
5.656,66.4
5.657,66.4
5.658,66.4
5.659,66.4
5.66,66.2
5.6610000000000005,66.4
5.662,66.4
5.663,66.4
5.664,66.4
5.665,66.4
5.666,66.4
5.667,66.4
5.668,66.4
5.6690000000000005,66.4
5.67,66.6
5.671,66.4
5.672,66.4
5.673,66.4
5.674,66.4
5.675,66.2
5.676,66.6
5.6770000000000005,66.6
5.678,66.4
5.679,66.6
5.68,66.4
5.681,66.6
5.682,66.6
5.683,66.4
5.684,66.6
5.6850000000000005,66.6
5.686,66.6
5.687,66.6
5.688,66.6
5.689,66.6
5.69,66.4
5.691,66.6
5.692,66.6
5.6930000000000005,66.6
5.694,66.6
5.695,66.6
5.696,66.6
5.697,66.4
5.698,66.6
5.699,66.6
5.7,66.6
5.7010000000000005,66.6
5.702,66.6
5.703,66.6
5.704,66.8
5.705,66.8
5.706,66.6
5.707,66.8
5.708,66.8
5.7090000000000005,66.8
5.71,66.4
5.711,66.8
5.712,66.6
5.713,66.8
5.714,66.8
5.715,66.8
5.716,66.6
5.7170000000000005,66.8
5.718,66.8
5.719,66.8
5.72,66.6
5.721,66.8
5.722,66.8
5.723,66.8
5.724,66.8
5.7250000000000005,66.8
5.726,66.8
5.727,66.8
5.728,66.8
5.729,66.8
5.73,66.8
5.731,67.0
5.732,66.8
5.7330000000000005,66.8
5.734,66.8
5.735,67.0
5.736,66.8
5.737,66.8
5.738,67.0
5.739,67.0
5.74,66.8
5.7410000000000005,67.0
5.742,66.8
5.743,66.8
5.744,66.8
5.745,66.8
5.746,66.8
5.747,67.0
5.748,67.0
5.7490000000000006,67.0
5.75,67.0
5.751,67.0
5.752,67.0
5.753,67.2
5.7540000000000004,66.8
5.755,67.2
5.756,67.2
5.757000000000001,66.8
5.758,67.0
5.759,67.0
5.76,67.2
5.761,67.0
5.7620000000000005,67.0
5.763,66.8
5.764,67.2
5.765,67.0
5.766,67.2
5.767,67.0
5.768,67.2
5.769,67.2
5.7700000000000005,67.0
5.771,67.2
5.772,67.2
5.773,67.2
5.774,67.4
5.775,67.2
5.776,67.2
5.777,67.0
5.7780000000000005,67.2
5.779,67.2
5.78,67.2
5.781,67.2
5.782,67.2
5.783,67.2
5.784,67.2
5.785,67.2
5.7860000000000005,67.2
5.787,67.2
5.788,67.2
5.789,67.2
5.79,67.4
5.791,67.2
5.792,67.2
5.793,67.2
5.7940000000000005,67.2
5.795,67.4
5.796,67.4
5.797,67.4
5.798,67.4
5.799,67.2
5.8,67.2
5.801,67.2
5.8020000000000005,67.4
5.803,67.4
5.804,67.4
5.805,67.4
5.806,67.4
5.807,67.6
5.808,67.4
5.809,67.2
5.8100000000000005,67.4
5.811,67.4
5.812,67.4
5.813,67.2
5.814,67.4
5.815,67.4
5.816,67.4
5.817,67.6
5.8180000000000005,67.4
5.819,67.4
5.82,67.6
5.821,67.4
5.822,67.6
5.823,67.4
5.824,67.6
5.825,67.6
5.8260000000000005,67.6
5.827,67.6
5.828,67.4
5.829,67.2
5.83,67.6
5.831,67.6
5.832,67.6
5.833,67.4
5.8340000000000005,67.6
5.835,67.4
5.836,67.6
5.837,67.8
5.838,67.4
5.839,67.6
5.84,67.6
5.841,67.6
5.8420000000000005,67.4
5.843,67.6
5.844,67.6
5.845,67.6
5.846,67.6
5.847,67.8
5.848,67.8
5.849,67.8
5.8500000000000005,67.8
5.851,67.6
5.852,67.6
5.853,67.8
5.854,67.6
5.855,67.8
5.856,67.6
5.857,67.8
5.8580000000000005,67.6
5.859,67.8
5.86,67.8
5.861,67.6
5.862,67.8
5.863,67.8
5.864,67.8
5.865,67.8
5.8660000000000005,67.8
5.867,67.6
5.868,67.8
5.869,67.6
5.87,67.8
5.871,67.8
5.872,67.8
5.873,67.8
5.8740000000000006,67.8
5.875,67.8
5.876,68.0
5.877,68.0
5.878,67.8
5.8790000000000004,68.0
5.88,68.0
5.881,67.8
5.882000000000001,68.0
5.883,67.8
5.884,67.8
5.885,67.8
5.886,67.8
5.8870000000000005,68.0
5.888,68.0
5.889,68.0
5.89,68.0
5.891,67.8
5.892,68.0
5.893,68.0
5.894,68.0
5.8950000000000005,68.0
5.896,68.0
5.897,68.2
5.898,67.8
5.899,67.8
5.9,68.0
5.901,68.0
5.902,68.2
5.9030000000000005,67.8
5.904,68.0
5.905,68.0
5.906,68.0
5.907,68.2
5.908,68.0
5.909,68.0
5.91,68.0
5.9110000000000005,68.0
5.912,68.2
5.913,68.2
5.914,68.0
5.915,68.0
5.916,68.2
5.917,68.2
5.918,68.0
5.9190000000000005,68.0
5.92,68.2
5.921,68.2
5.922,68.2
5.923,68.0
5.924,68.0
5.925,68.2
5.926,68.2
5.9270000000000005,68.0
5.928,68.2
5.929,68.2
5.93,68.2
5.931,68.2
5.932,68.2
5.933,68.2
5.934,68.4
5.9350000000000005,68.2
5.936,68.4
5.937,68.2
5.938,68.2
5.939,68.2
5.94,68.2
5.941,68.4
5.942,68.2
5.9430000000000005,68.2
5.944,68.2
5.945,68.2
5.946,68.4
5.947,68.4
5.948,68.4
5.949,68.4
5.95,68.2
5.9510000000000005,68.4
5.952,68.6
5.953,68.4
5.954,68.4
5.955,68.4
5.956,68.4
5.957,68.2
5.958,68.4
5.9590000000000005,68.4
5.96,68.4
5.961,68.4
5.962,68.4
5.963,68.4
5.964,68.4
5.965,68.2
5.966,68.6
5.9670000000000005,68.8
5.968,68.4
5.969,68.4
5.97,68.6
5.971,68.4
5.972,68.4
5.973,68.4
5.974,68.6
5.9750000000000005,68.4
5.976,68.6
5.977,68.2
5.978,68.6
5.979,68.6
5.98,68.4
5.981,68.6
5.982,68.6
5.9830000000000005,68.6
5.984,68.6
5.985,68.6
5.986,68.6
5.987,68.6
5.988,68.6
5.989,68.4
5.99,68.8
5.9910000000000005,68.6
5.992,68.8
5.993,68.8
5.994,68.8
5.995,68.8
5.996,68.8
5.997,68.6
5.998,68.6
5.9990000000000006,68.8
6.0,68.6
6.001,68.8
6.002,68.4
6.003,68.6
6.0040000000000004,68.8
6.005,68.6
6.006,69.0
6.007000000000001,68.8
6.008,68.8
6.009,68.6
6.01,68.6
6.011,68.8
6.0120000000000005,68.8
6.013,68.8
6.014,68.8
6.015000000000001,68.8
6.016,68.8
6.017,68.8
6.018,68.8
6.019,69.0
6.0200000000000005,68.8
6.021,68.8
6.022,69.0
6.023,68.8
6.024,69.0
6.025,69.0
6.026,68.8
6.027,69.0
6.0280000000000005,69.0
6.029,68.8
6.03,69.0
6.031,69.0
6.032,69.0
6.033,69.0
6.034,69.0
6.035,69.0
6.0360000000000005,69.0
6.037,69.0
6.038,69.0
6.039,68.8
6.04,69.0
6.041,69.0
6.042,69.2
6.043,68.8
6.0440000000000005,69.2
6.045,69.0
6.046,69.0
6.047,69.0
6.048,69.0
6.049,69.0
6.05,68.8
6.051,68.8
6.0520000000000005,69.0
6.053,69.0
6.054,69.0
6.055,69.0
6.056,69.0
6.057,69.2
6.058,69.0
6.059,69.0
6.0600000000000005,69.2
6.061,69.2
6.062,69.2
6.063,69.2
6.064,69.0
6.065,69.2
6.066,69.0
6.067,69.2
6.0680000000000005,69.2
6.069,69.2
6.07,69.2
6.071,69.2
6.072,69.2
6.073,69.2
6.074,69.2
6.075,69.2
6.0760000000000005,69.0
6.077,69.2
6.078,69.2
6.079,69.2
6.08,69.2
6.081,69.4
6.082,69.2
6.083,69.2
6.0840000000000005,69.2
6.085,69.2
6.086,69.2
6.087,69.4
6.088,69.2
6.089,69.4
6.09,69.4
6.091,69.2
6.0920000000000005,69.4
6.093,69.2
6.094,69.4
6.095,69.4
6.096,69.4
6.097,69.4
6.098,69.4
6.099,69.2
6.1000000000000005,69.2
6.101,69.6
6.102,69.6
6.103,69.2
6.104,69.6
6.105,69.6
6.106,69.4
6.107,69.2
6.1080000000000005,69.4
6.109,69.6
6.11,69.6
6.111,69.4
6.112,69.4
6.113,69.4
6.114,69.6
6.115,69.4
6.1160000000000005,69.4
6.117,69.6
6.118,69.4
6.119,69.4
6.12,69.6
6.121,69.8
6.122,69.4
6.123,69.8
6.1240000000000006,69.8
6.125,69.6
6.126,69.6
6.127,69.6
6.128,69.8
6.1290000000000004,69.6
6.13,69.8
6.131,69.8
6.132000000000001,69.6
6.133,69.6
6.134,69.8
6.135,69.6
6.136,69.8
6.1370000000000005,69.8
6.138,69.6
6.139,69.6
6.140000000000001,69.4
6.141,69.8
6.142,69.6
6.143,69.8
6.144,69.6
6.1450000000000005,69.8
6.146,69.8
6.147,70.0
6.148,69.8
6.149,70.0
6.15,69.8
6.151,69.8
6.152,69.8
6.1530000000000005,69.8
6.154,69.8
6.155,69.6
6.156,69.8
6.157,70.0
6.158,69.8
6.159,69.6
6.16,70.0
6.1610000000000005,70.0
6.162,70.0
6.163,69.8
6.164,70.0
6.165,69.8
6.166,69.8
6.167,70.0
6.168,70.0
6.1690000000000005,70.0
6.17,70.0
6.171,70.0
6.172,70.0
6.173,70.0
6.174,70.0
6.175,69.8
6.176,70.0
6.1770000000000005,69.8
6.178,69.8
6.179,69.8
6.18,70.0
6.181,70.0
6.182,70.0
6.183,69.8
6.184,69.8
6.1850000000000005,70.0
6.186,70.0
6.187,70.2
6.188,70.0
6.189,70.0
6.19,70.0
6.191,69.8
6.192,70.2
6.1930000000000005,70.0
6.194,70.0
6.195,70.0
6.196,70.2
6.197,70.2
6.198,69.8
6.199,70.2
6.2,70.0
6.2010000000000005,70.0
6.202,70.4
6.203,70.4
6.204,70.4
6.205,70.0
6.206,70.4
6.207,70.2
6.208,70.2
6.2090000000000005,70.4
6.21,70.2
6.211,70.2
6.212,70.0
6.213,70.4
6.214,70.2
6.215,70.0
6.216,70.2
6.2170000000000005,70.2
6.218,70.2
6.219,70.2
6.22,70.0
6.221,70.2
6.222,70.4
6.223,70.4
6.224,70.2
6.2250000000000005,70.2
6.226,70.0
6.227,70.4
6.228,70.2
6.229,70.2
6.23,70.4
6.231,70.2
6.232,70.4
6.2330000000000005,70.4
6.234,70.4
6.235,70.4
6.236,70.4
6.237,70.4
6.238,70.4
6.239,70.2
6.24,70.4
6.2410000000000005,70.6
6.242,70.4
6.243,70.4
6.244,70.4
6.245,70.4
6.246,70.4
6.247,70.2
6.248,70.4
6.2490000000000006,70.4
6.25,70.6
6.251,70.4
6.252,70.2
6.253,70.4
6.2540000000000004,70.2
6.255,70.6
6.256,70.6
6.257000000000001,70.2
6.258,70.4
6.259,70.6
6.26,70.4
6.261,70.4
6.2620000000000005,70.4
6.263,70.6
6.264,70.4
6.265000000000001,70.4
6.266,70.6
6.267,70.8
6.268,70.6
6.269,70.6
6.2700000000000005,70.6
6.271,70.8
6.272,70.6
6.273,70.6
6.274,70.6
6.275,70.8
6.276,70.4
6.277,70.6
6.2780000000000005,70.6
6.279,70.6
6.28,70.6
6.281,70.6
6.282,70.6
6.283,70.4
6.284,70.6
6.285,70.6
6.2860000000000005,70.8
6.287,70.6
6.288,70.8
6.289,70.6
6.29,70.6
6.291,70.8
6.292,70.6
6.293,70.6
6.2940000000000005,70.6
6.295,70.8
6.296,70.8
6.297,70.6
6.298,70.8
6.299,70.6
6.3,71.0
6.301,70.8
6.3020000000000005,70.6
6.303,70.8
6.304,70.4
6.305,70.8
6.306,70.8
6.307,70.8
6.308,70.8
6.309,70.8
6.3100000000000005,70.6
6.311,70.6
6.312,71.0
6.313,70.6
6.314,70.8
6.315,70.8
6.316,70.6
6.317,70.8
6.3180000000000005,70.8
6.319,70.8
6.32,70.6
6.321,71.0
6.322,71.0
6.323,70.8
6.324,70.8
6.325,70.8
6.3260000000000005,71.0
6.327,70.8
6.328,70.8
6.329,70.8
6.33,70.8
6.331,70.8
6.332,71.0
6.333,70.8
6.3340000000000005,71.0
6.335,71.0
6.336,71.0
6.337,71.0
6.338,70.8
6.339,71.0
6.34,70.8
6.341,71.0
6.3420000000000005,71.0
6.343,71.0
6.344,70.8
6.345,71.0
6.346,70.8
6.347,71.0
6.348,71.0
6.349,71.2
6.3500000000000005,71.0
6.351,71.0
6.352,71.0
6.353,70.8
6.354,71.0
6.355,71.2
6.356,71.0
6.357,71.0
6.3580000000000005,71.0
6.359,71.0
6.36,71.0
6.361,71.0
6.362,71.0
6.363,71.0
6.364,71.2
6.365,71.2
6.3660000000000005,71.2
6.367,71.2
6.368,71.0
6.369,71.2
6.37,71.2
6.371,71.2
6.372,71.2
6.373,71.0
6.3740000000000006,71.2
6.375,71.2
6.376,71.0
6.377,71.0
6.378,71.2
6.3790000000000004,71.2
6.38,71.2
6.381,71.0
6.382000000000001,71.2
6.383,71.2
6.384,71.2
6.385,71.2
6.386,71.2
6.3870000000000005,71.2
6.388,71.0
6.389,71.2
6.390000000000001,71.4
6.391,71.2
6.392,71.2
6.393,71.4
6.394,71.2
6.3950000000000005,71.2
6.396,71.2
6.397,71.2
6.398000000000001,71.4
6.399,71.2
6.4,71.4
6.401,71.4
6.402,71.4
6.4030000000000005,71.0
6.404,71.4
6.405,71.2
6.406,71.4
6.407,71.4
6.408,71.2
6.409,71.2
6.41,71.2
6.4110000000000005,71.4
6.412,71.4
6.413,71.2
6.414,71.4
6.415,71.2
6.416,71.4
6.417,71.4
6.418,71.6
6.4190000000000005,71.4
6.42,71.6
6.421,71.6
6.422,71.4
6.423,71.4
6.424,71.2
6.425,71.6
6.426,71.4
6.4270000000000005,71.4
6.428,71.6
6.429,71.4
6.43,71.4
6.431,71.4
6.432,71.4
6.433,71.6
6.434,71.4
6.4350000000000005,71.6
6.436,71.6
6.437,71.4
6.438,71.6
6.439,71.4
6.44,71.6
6.441,71.4
6.442,71.4
6.4430000000000005,71.6
6.444,71.6
6.445,71.2
6.446,71.4
6.447,71.6
6.448,71.6
6.449,71.8
6.45,71.4
6.4510000000000005,71.4
6.452,71.4
6.453,71.6
6.454,71.6
6.455,71.4
6.456,71.4
6.457,71.8
6.458,71.6
6.4590000000000005,71.6
6.46,71.4
6.461,71.8
6.462,71.8
6.463,71.2
6.464,71.6
6.465,71.6
6.466,71.6
6.4670000000000005,71.4
6.468,71.8
6.469,71.6
6.47,71.6
6.471,71.6
6.472,71.6
6.473,71.6
6.474,71.6
6.4750000000000005,71.6
6.476,71.6
6.477,71.6
6.478,71.6
6.479,71.6
6.48,71.8
6.481,71.6
6.482,71.8
6.4830000000000005,71.6
6.484,72.0
6.485,71.6
6.486,71.6
6.487,71.8
6.488,71.8
6.489,71.6
6.49,71.8
6.4910000000000005,71.8
6.492,72.0
6.493,71.6
6.494,71.8
6.495,71.6
6.496,72.0
6.497,71.6
6.498,72.0
6.4990000000000006,72.0
6.5,72.0
6.501,71.8
6.502,71.6
6.503,72.0
6.5040000000000004,71.8
6.505,72.0
6.506,72.0
6.507000000000001,72.0
6.508,71.8
6.509,71.8
6.51,72.0
6.511,71.8
6.5120000000000005,71.8
6.513,71.6
6.514,71.8
6.515000000000001,71.8
6.516,72.0
6.517,72.0
6.518,71.6
6.519,72.0
6.5200000000000005,72.0
6.521,71.8
6.522,71.8
6.523000000000001,71.8
6.524,72.0
6.525,71.8
6.526,71.8
6.527,72.0
6.5280000000000005,72.0
6.529,72.0
6.53,72.0
6.531,72.0
6.532,72.0
6.533,72.0
6.534,72.0
6.535,72.0
6.5360000000000005,71.8
6.537,72.0
6.538,71.8
6.539,72.0
6.54,71.8
6.541,72.0
6.542,72.0
6.543,72.0
6.5440000000000005,71.8
6.545,72.0
6.546,72.0
6.547,72.2
6.548,72.0
6.549,72.0
6.55,71.8
6.551,71.8
6.5520000000000005,72.0
6.553,72.0
6.554,71.8
6.555,72.0
6.556,72.0
6.557,72.0
6.558,72.0
6.559,71.8
6.5600000000000005,72.2
6.561,71.8
6.562,71.8
6.563,72.2
6.564,72.2
6.565,72.0
6.566,71.8
6.567,72.0
6.5680000000000005,72.0
6.569,72.2
6.57,72.0
6.571,72.0
6.572,72.0
6.573,72.0
6.574,72.0
6.575,72.0
6.5760000000000005,72.0
6.577,72.0
6.578,72.0
6.579,72.0
6.58,72.0
6.581,72.0
6.582,72.0
6.583,72.2
6.5840000000000005,72.2
6.585,72.0
6.586,72.2
6.587,72.2
6.588,72.2
6.589,72.2
6.59,72.0
6.591,72.2
6.5920000000000005,72.0
6.593,72.0
6.594,72.0
6.595,72.2
6.596,72.2
6.597,72.2
6.598,72.2
6.599,72.2
6.6000000000000005,72.2
6.601,72.0
6.602,72.2
6.603,72.2
6.604,72.2
6.605,72.2
6.606,72.4
6.607,72.0
6.6080000000000005,72.0
6.609,72.2
6.61,72.2
6.611,72.0
6.612,72.2
6.613,72.2
6.614,72.2
6.615,72.2
6.6160000000000005,72.4
6.617,72.2
6.618,72.4
6.619,72.4
6.62,72.2
6.621,72.2
6.622,72.0
6.623,72.4
6.6240000000000006,72.2
6.625,72.4
6.626,72.2
6.627,72.2
6.628,72.4
6.6290000000000004,72.4
6.63,72.2
6.631,72.2
6.632000000000001,72.2
6.633,72.4
6.634,72.4
6.635,72.4
6.636,72.4
6.6370000000000005,72.2
6.638,72.4
6.639,72.4
6.640000000000001,72.4
6.641,72.4
6.642,72.4
6.643,72.4
6.644,72.4
6.6450000000000005,72.4
6.646,72.6
6.647,72.4
6.648000000000001,72.2
6.649,72.2
6.65,72.2
6.651,72.4
6.652,72.4
6.6530000000000005,72.2
6.654,72.2
6.655,72.4
6.656000000000001,72.4
6.657,72.6
6.658,72.2
6.659,72.4
6.66,72.4
6.6610000000000005,72.2
6.662,72.4
6.663,72.6
6.664,72.4
6.665,72.2
6.666,72.4
6.667,72.4
6.668,72.4
6.6690000000000005,72.4
6.67,72.4
6.671,72.4
6.672,72.4
6.673,72.4
6.674,72.4
6.675,72.4
6.676,72.4
6.6770000000000005,72.4
6.678,72.4
6.679,72.4
6.68,72.2
6.681,72.6
6.682,72.4
6.683,72.4
6.684,72.4
6.6850000000000005,72.4
6.686,72.2
6.687,72.6
6.688,72.4
6.689,72.4
6.69,72.4
6.691,72.6
6.692,72.6
6.6930000000000005,72.4
6.694,72.6
6.695,72.6
6.696,72.6
6.697,72.4
6.698,72.4
6.699,72.6
6.7,72.4
6.7010000000000005,72.4
6.702,72.6
6.703,72.6
6.704,72.6
6.705,72.4
6.706,72.4
6.707,72.6
6.708,72.6
6.7090000000000005,72.6
6.71,72.4
6.711,72.6
6.712,72.4
6.713,72.6
6.714,72.6
6.715,72.8
6.716,72.4
6.7170000000000005,72.6
6.718,72.6
6.719,72.4
6.72,72.4
6.721,72.6
6.722,72.6
6.723,72.6
6.724,72.6
6.7250000000000005,72.6
6.726,72.6
6.727,72.6
6.728,72.6
6.729,72.8
6.73,72.6
6.731,72.8
6.732,72.8
6.7330000000000005,72.6
6.734,72.6
6.735,72.6
6.736,72.6
6.737,72.8
6.738,72.8
6.739,72.8
6.74,72.8
6.7410000000000005,72.6
6.742,72.6
6.743,72.6
6.744,72.8
6.745,72.6
6.746,72.8
6.747,72.6
6.748,72.6
6.7490000000000006,72.4
6.75,73.0
6.751,72.6
6.752,72.8
6.753,72.4
6.7540000000000004,72.8
6.755,72.6
6.756,72.8
6.757000000000001,72.4
6.758,72.6
6.759,72.4
6.76,72.6
6.761,72.8
6.7620000000000005,72.8
6.763,73.0
6.764,72.6
6.765000000000001,72.8
6.766,72.6
6.767,72.8
6.768,72.6
6.769,72.6
6.7700000000000005,72.8
6.771,72.6
6.772,72.8
6.773000000000001,72.8
6.774,72.8
6.775,72.8
6.776,72.8
6.777,72.6
6.7780000000000005,72.6
6.779,72.6
6.78,72.8
6.781000000000001,72.8
6.782,72.8
6.783,72.8
6.784,72.6
6.785,72.8
6.7860000000000005,72.8
6.787,73.0
6.788,72.6
6.789,73.0
6.79,72.8
6.791,72.8
6.792,72.8
6.793,72.8
6.7940000000000005,73.0
6.795,72.8
6.796,72.8
6.797,72.8
6.798,72.8
6.799,72.6
6.8,72.8
6.801,72.8
6.8020000000000005,73.0
6.803,72.8
6.804,72.8
6.805,72.6
6.806,72.6
6.807,73.0
6.808,73.0
6.809,72.8
6.8100000000000005,72.8
6.811,72.8
6.812,72.8
6.813,73.0
6.814,72.8
6.815,72.8
6.816,73.0
6.817,73.0
6.8180000000000005,72.6
6.819,72.8
6.82,72.8
6.821,73.0
6.822,72.8
6.823,72.8
6.824,73.0
6.825,73.0
6.8260000000000005,72.8
6.827,72.8
6.828,73.0
6.829,73.0
6.83,72.8
6.831,72.8
6.832,72.8
6.833,72.8
6.8340000000000005,72.8
6.835,72.8
6.836,72.8
6.837,72.8
6.838,72.8
6.839,72.8
6.84,72.8
6.841,72.8
6.8420000000000005,73.0
6.843,72.8
6.844,73.0
6.845,72.8
6.846,73.0
6.847,72.8
6.848,72.8
6.849,73.0
6.8500000000000005,73.0
6.851,72.8
6.852,72.8
6.853,73.0
6.854,73.0
6.855,72.8
6.856,72.8
6.857,72.8
6.8580000000000005,72.8
6.859,72.8
6.86,72.8
6.861,73.0
6.862,72.8
6.863,73.0
6.864,73.0
6.865,73.0
6.8660000000000005,73.0
6.867,73.0
6.868,72.8
6.869,72.8
6.87,72.8
6.871,73.0
6.872,73.0
6.873,72.8
6.8740000000000006,73.0
6.875,73.0
6.876,72.8
6.877,72.8
6.878,72.6
6.8790000000000004,73.2
6.88,73.0
6.881,73.0
6.882000000000001,73.0
6.883,72.8
6.884,73.0
6.885,73.0
6.886,73.0
6.8870000000000005,73.0
6.888,73.0
6.889,72.8
6.890000000000001,72.8
6.891,73.0
6.892,73.0
6.893,72.8
6.894,73.2
6.8950000000000005,73.0
6.896,73.2
6.897,73.0
6.898000000000001,72.8
6.899,73.0
6.9,73.0
6.901,73.0
6.902,73.2
6.9030000000000005,73.0
6.904,72.8
6.905,72.8
6.906000000000001,73.0
6.907,73.0
6.908,73.0
6.909,73.2
6.91,72.8
6.9110000000000005,72.8
6.912,73.2
6.913,73.0
6.914,73.0
6.915,73.0
6.916,73.0
6.917,73.0
6.918,73.0
6.9190000000000005,73.0
6.92,73.0
6.921,73.0
6.922,73.0
6.923,73.2
6.924,73.0
6.925,73.0
6.926,73.0
6.9270000000000005,73.2
6.928,72.8
6.929,73.0
6.93,72.8
6.931,73.0
6.932,72.8
6.933,73.0
6.934,73.0
6.9350000000000005,73.0
6.936,73.0
6.937,73.0
6.938,73.0
6.939,73.0
6.94,73.0
6.941,73.0
6.942,73.2
6.9430000000000005,73.2
6.944,73.0
6.945,73.0
6.946,73.0
6.947,73.0
6.948,73.0
6.949,73.4
6.95,73.0
6.9510000000000005,72.8
6.952,73.0
6.953,73.2
6.954,73.2
6.955,72.8
6.956,72.8
6.957,73.0
6.958,73.0
6.9590000000000005,73.0
6.96,72.8
6.961,73.0
6.962,73.0
6.963,73.2
6.964,73.0
6.965,73.2
6.966,73.0
6.9670000000000005,72.8
6.968,73.0
6.969,73.0
6.97,73.0
6.971,72.8
6.972,73.0
6.973,73.0
6.974,73.2
6.9750000000000005,72.8
6.976,73.2
6.977,73.0
6.978,73.0
6.979,73.0
6.98,73.2
6.981,73.0
6.982,73.0
6.9830000000000005,73.0
6.984,73.0
6.985,73.0
6.986,72.8
6.987,73.2
6.988,73.0
6.989,73.0
6.99,73.0
6.9910000000000005,73.2
6.992,73.2
6.993,73.0
6.994,73.0
6.995,73.2
6.996,73.2
6.997,73.0
6.998,73.0
6.9990000000000006,73.0
7.0,73.0
7.001,73.2
7.002,73.2
7.003,72.8
7.0040000000000004,73.0
7.005,73.0
7.006,73.0
7.007000000000001,72.8
7.008,73.2
7.009,73.0
7.01,73.0
7.011,73.2
7.0120000000000005,73.2
7.013,73.0
7.014,73.2
7.015000000000001,73.2
7.016,72.8
7.017,73.0
7.018,73.0
7.019,73.0
7.0200000000000005,73.0
7.021,73.2
7.022,73.2
7.023000000000001,73.2
7.024,73.2
7.025,73.0
7.026,73.0
7.027,73.0
7.0280000000000005,73.2
7.029,73.2
7.03,73.2
7.031000000000001,73.0
7.032,73.2
7.033,73.0
7.034,73.0
7.035,73.0
7.0360000000000005,73.2
7.037,73.0
7.038,73.2
7.039000000000001,73.0
7.04,73.2
7.041,73.0
7.042,73.2
7.043,73.2
7.0440000000000005,73.2
7.045,73.0
7.046,73.0
7.047,73.2
7.048,73.2
7.049,73.0
7.05,73.2
7.051,73.0
7.0520000000000005,73.0
7.053,73.4
7.054,73.0
7.055,72.8
7.056,73.0
7.057,73.0
7.058,73.0
7.059,73.2
7.0600000000000005,73.0
7.061,73.0
7.062,73.2
7.063,73.2
7.064,73.0
7.065,73.0
7.066,73.0
7.067,73.0
7.0680000000000005,72.8
7.069,73.2
7.07,73.0
7.071,73.0
7.072,73.0
7.073,73.0
7.074,72.8
7.075,72.8
7.0760000000000005,73.0
7.077,73.2
7.078,73.2
7.079,73.0
7.08,73.0
7.081,73.0
7.082,73.2
7.083,73.2
7.0840000000000005,73.0
7.085,72.8
7.086,73.2
7.087,73.0
7.088,73.0
7.089,72.8
7.09,73.0
7.091,73.0
7.0920000000000005,73.0
7.093,73.0
7.094,73.0
7.095,73.2
7.096,72.8
7.097,73.0
7.098,72.8
7.099,73.2
7.1000000000000005,73.0
7.101,73.0
7.102,72.8
7.103,73.0
7.104,73.0
7.105,73.0
7.106,73.0
7.107,73.0
7.1080000000000005,72.8
7.109,73.0
7.11,73.0
7.111,73.0
7.112,73.0
7.113,73.0
7.114,73.0
7.115,72.8
7.1160000000000005,73.2
7.117,73.0
7.118,73.0
7.119,73.0
7.12,73.0
7.121,73.0
7.122,73.0
7.123,73.2
7.1240000000000006,73.0
7.125,73.0
7.126,73.0
7.127,73.0
7.128,72.8
7.1290000000000004,73.0
7.13,73.0
7.131,72.8
7.132000000000001,73.0
7.133,73.0
7.134,73.0
7.135,73.0
7.136,72.8
7.1370000000000005,73.0
7.138,73.0
7.139,73.0
7.140000000000001,72.8
7.141,73.2
7.142,73.0
7.143,73.0
7.144,72.8
7.1450000000000005,72.8
7.146,73.2
7.147,73.0
7.148000000000001,72.8
7.149,73.0
7.15,72.8
7.151,73.2
7.152,73.0
7.1530000000000005,72.6
7.154,72.8
7.155,72.8
7.156000000000001,72.8
7.157,73.0
7.158,73.0
7.159,73.0
7.16,72.8
7.1610000000000005,73.0
7.162,73.0
7.163,73.0
7.164000000000001,73.0
7.165,72.6
7.166,73.0
7.167,72.8
7.168,73.0
7.1690000000000005,73.0
7.17,72.8
7.171,73.0
7.172,73.0
7.173,72.6
7.174,72.8
7.175,73.0
7.176,73.0
7.1770000000000005,73.2
7.178,73.0
7.179,72.8
7.18,72.8
7.181,73.0
7.182,73.0
7.183,72.8
7.184,72.8
7.1850000000000005,73.0
7.186,72.8
7.187,72.8
7.188,72.8
7.189,73.0
7.19,73.0
7.191,73.0
7.192,73.0
7.1930000000000005,73.0
7.194,73.0
7.195,72.6
7.196,72.8
7.197,72.8
7.198,73.0
7.199,73.0
7.2,72.8
7.2010000000000005,72.6
7.202,72.6
7.203,72.8
7.204,72.8
7.205,72.8
7.206,73.0
7.207,72.8
7.208,73.0
7.2090000000000005,72.8
7.21,72.8
7.211,72.8
7.212,73.0
7.213,73.0
7.214,72.6
7.215,73.0
7.216,72.8
7.2170000000000005,72.8
7.218,72.8
7.219,73.0
7.22,73.0
7.221,72.6
7.222,72.8
7.223,73.0
7.224,72.8
7.2250000000000005,73.0
7.226,72.8
7.227,72.8
7.228,72.8
7.229,72.8
7.23,73.0
7.231,72.8
7.232,72.8
7.2330000000000005,72.8
7.234,72.8
7.235,72.8
7.236,72.8
7.237,72.8
7.238,72.8
7.239,72.6
7.24,72.8
7.2410000000000005,72.8
7.242,72.8
7.243,72.6
7.244,72.6
7.245,72.8
7.246,73.0
7.247,72.6
7.248,72.8
7.2490000000000006,72.6
7.25,72.8
7.251,72.8
7.252,72.6
7.253,72.8
7.2540000000000004,72.8
7.255,72.6
7.256,72.8
7.257000000000001,72.8
7.258,72.8
7.259,72.6
7.26,72.8
7.261,73.0
7.2620000000000005,72.8
7.263,72.8
7.264,72.6
7.265000000000001,73.0
7.266,72.6
7.267,72.6
7.268,72.8
7.269,72.8
7.2700000000000005,72.8
7.271,72.8
7.272,72.6
7.273000000000001,72.8
7.274,72.6
7.275,72.8
7.276,72.8
7.277,72.8
7.2780000000000005,72.6
7.279,72.6
7.28,72.6
7.281000000000001,72.8
7.282,72.8
7.283,72.6
7.284,72.8
7.285,72.6
7.2860000000000005,72.6
7.287,72.6
7.288,72.8
7.289000000000001,72.6
7.29,73.0
7.291,72.6
7.292,72.8
7.293,72.6
7.2940000000000005,72.4
7.295,72.6
7.296,72.6
7.297,72.6
7.298,72.6
7.299,72.6
7.3,72.4
7.301,72.6
7.3020000000000005,73.0
7.303,72.8
7.304,72.4
7.305,72.6
7.306,72.6
7.307,72.6
7.308,72.6
7.309,72.8
7.3100000000000005,72.4
7.311,72.8
7.312,72.6
7.313,72.4
7.314,72.4
7.315,72.6
7.316,72.6
7.317,72.4
7.3180000000000005,72.6
7.319,72.4
7.32,72.6
7.321,72.6
7.322,72.6
7.323,72.6
7.324,72.4
7.325,72.6
7.3260000000000005,72.6
7.327,72.6
7.328,72.4
7.329,72.6
7.33,72.6
7.331,72.6
7.332,72.6
7.333,72.6
7.3340000000000005,72.6
7.335,72.6
7.336,72.4
7.337,72.6
7.338,72.6
7.339,72.6
7.34,72.6
7.341,72.4
7.3420000000000005,72.4
7.343,72.4
7.344,72.4
7.345,72.6
7.346,72.4
7.347,72.4
7.348,72.6
7.349,72.4
7.3500000000000005,72.4
7.351,72.2
7.352,72.4
7.353,72.4
7.354,72.4
7.355,72.4
7.356,72.6
7.357,72.6
7.3580000000000005,72.4
7.359,72.6
7.36,72.4
7.361,72.6
7.362,72.4
7.363,72.4
7.364,72.6
7.365,72.2
7.3660000000000005,72.4
7.367,72.4
7.368,72.4
7.369,72.6
7.37,72.4
7.371,72.2
7.372,72.2
7.373,72.4
7.3740000000000006,72.4
7.375,72.4
7.376,72.4
7.377,72.4
7.378,72.2
7.3790000000000004,72.2
7.38,72.2
7.381,72.2
7.382000000000001,72.2
7.383,72.4
7.384,72.2
7.385,72.2
7.386,72.2
7.3870000000000005,72.4
7.388,72.4
7.389,72.4
7.390000000000001,72.4
7.391,72.4
7.392,72.4
7.393,72.2
7.394,72.4
7.3950000000000005,72.2
7.396,72.4
7.397,72.2
7.398000000000001,72.4
7.399,72.2
7.4,72.2
7.401,72.4
7.402,72.2
7.4030000000000005,72.2
7.404,72.2
7.405,72.2
7.406000000000001,72.2
7.407,72.4
7.408,72.2
7.409,72.2
7.41,72.2
7.4110000000000005,72.2
7.412,72.2
7.413,72.4
7.414000000000001,72.0
7.415,72.2
7.416,72.0
7.417,72.2
7.418,72.4
7.4190000000000005,72.0
7.42,72.2
7.421,72.2
7.422000000000001,72.2
7.423,72.2
7.424,72.4
7.425,72.2
7.426,72.2
7.4270000000000005,72.0
7.428,72.2
7.429,72.0
7.43,72.2
7.431,72.2
7.432,72.2
7.433,72.2
7.434,72.2
7.4350000000000005,72.2
7.436,72.2
7.437,72.0
7.438,72.2
7.439,72.2
7.44,72.0
7.441,72.2
7.442,71.8
7.4430000000000005,72.2
7.444,72.2
7.445,72.0
7.446,72.0
7.447,72.2
7.448,72.0
7.449,72.0
7.45,72.0
7.4510000000000005,72.2
7.452,71.8
7.453,72.2
7.454,72.2
7.455,72.0
7.456,72.2
7.457,71.8
7.458,72.0
7.4590000000000005,72.2
7.46,72.2
7.461,72.0
7.462,72.0
7.463,72.2
7.464,72.0
7.465,72.0
7.466,71.8
7.4670000000000005,72.0
7.468,72.0
7.469,72.0
7.47,71.8
7.471,71.8
7.472,72.0
7.473,72.0
7.474,72.0
7.4750000000000005,72.0
7.476,71.8
7.477,71.8
7.478,71.8
7.479,72.0
7.48,71.8
7.481,72.0
7.482,72.0
7.4830000000000005,72.0
7.484,72.0
7.485,71.8
7.486,72.0
7.487,72.0
7.488,72.0
7.489,72.0
7.49,72.0
7.4910000000000005,72.0
7.492,71.8
7.493,72.0
7.494,71.8
7.495,72.0
7.496,72.0
7.497,72.0
7.498,71.8
7.4990000000000006,71.8
7.5,72.0
7.501,71.8
7.502,71.8
7.503,72.0
7.5040000000000004,71.8
7.505,71.6
7.506,71.6
7.507000000000001,71.8
7.508,71.8
7.509,72.0
7.51,72.0
7.511,71.8
7.5120000000000005,71.6
7.513,71.6
7.514,71.8
7.515000000000001,71.6
7.516,72.0
7.517,71.6
7.518,71.6
7.519,71.8
7.5200000000000005,72.0
7.521,71.8
7.522,71.8
7.523000000000001,71.8
7.524,72.0
7.525,71.8
7.526,71.8
7.527,71.6
7.5280000000000005,71.6
7.529,72.0
7.53,71.6
7.531000000000001,71.6
7.532,71.6
7.533,71.8
7.534,71.6
7.535,71.6
7.5360000000000005,71.6
7.537,71.6
7.538,71.6
7.539000000000001,71.6
7.54,71.4
7.541,71.4
7.542,71.6
7.543,71.6
7.5440000000000005,71.4
7.545,71.4
7.546,71.4
7.547000000000001,71.6
7.548,71.6
7.549,71.4
7.55,71.4
7.551,71.4
7.5520000000000005,71.4
7.553,71.4
7.554,71.4
7.555,71.4
7.556,71.4
7.557,71.4
7.558,71.6
7.559,71.6
7.5600000000000005,71.4
7.561,71.4
7.562,71.6
7.563,71.4
7.564,71.4
7.565,71.4
7.566,71.4
7.567,71.4
7.5680000000000005,71.4
7.569,71.2
7.57,71.4
7.571,71.4
7.572,71.4
7.573,71.2
7.574,71.4
7.575,71.2
7.5760000000000005,71.4
7.577,71.4
7.578,71.4
7.579,71.4
7.58,71.2
7.581,71.4
7.582,71.2
7.583,71.2
7.5840000000000005,71.2
7.585,71.2
7.586,71.2
7.587,71.2
7.588,71.0
7.589,71.2
7.59,71.2
7.591,71.0
7.5920000000000005,71.2
7.593,71.0
7.594,71.0
7.595,71.2
7.596,71.4
7.597,71.0
7.598,71.0
7.599,71.2
7.6000000000000005,71.0
7.601,70.8
7.602,71.0
7.603,70.8
7.604,71.0
7.605,71.2
7.606,71.0
7.607,71.0
7.6080000000000005,71.0
7.609,71.0
7.61,71.0
7.611,71.0
7.612,71.0
7.613,71.0
7.614,70.8
7.615,71.2
7.6160000000000005,71.2
7.617,71.0
7.618,71.0
7.619,71.0
7.62,70.8
7.621,70.8
7.622,70.8
7.623,70.8
7.6240000000000006,71.0
7.625,70.6
7.626,71.0
7.627,70.8
7.628,70.8
7.6290000000000004,70.8
7.63,71.0
7.631,71.0
7.632000000000001,70.8
7.633,70.6
7.634,71.0
7.635,70.8
7.636,70.8
7.6370000000000005,70.6
7.638,70.6
7.639,70.6
7.640000000000001,70.6
7.641,70.8
7.642,70.6
7.643,70.6
7.644,70.6
7.6450000000000005,70.8
7.646,70.6
7.647,70.8
7.648000000000001,70.4
7.649,70.6
7.65,70.6
7.651,70.4
7.652,70.4
7.6530000000000005,70.6
7.654,70.4
7.655,70.4
7.656000000000001,70.6
7.657,70.6
7.658,70.6
7.659,70.6
7.66,70.2
7.6610000000000005,70.4
7.662,70.4
7.663,70.2
7.664000000000001,70.4
7.665,70.4
7.666,70.4
7.667,70.4
7.668,70.2
7.6690000000000005,70.2
7.67,70.2
7.671,70.4
7.672000000000001,70.4
7.673,70.4
7.674,70.2
7.675,70.4
7.676,70.2
7.6770000000000005,70.6
7.678,70.2
7.679,70.2
7.68,70.4
7.681,70.0
7.682,70.2
7.683,70.2
7.684,70.4
7.6850000000000005,70.4
7.686,70.0
7.687,70.2
7.688,70.0
7.689,70.2
7.69,69.8
7.691,70.2
7.692,69.8
7.6930000000000005,70.2
7.694,70.2
7.695,70.2
7.696,70.0
7.697,70.2
7.698,70.2
7.699,70.0
7.7,69.8
7.7010000000000005,70.0
7.702,69.8
7.703,69.8
7.704,70.0
7.705,70.0
7.706,70.0
7.707,70.0
7.708,70.0
7.7090000000000005,69.8
7.71,69.8
7.711,69.8
7.712,70.0
7.713,69.8
7.714,69.8
7.715,70.0
7.716,69.8
7.7170000000000005,69.8
7.718,70.0
7.719,69.8
7.72,69.6
7.721,69.6
7.722,69.6
7.723,69.8
7.724,69.6
7.7250000000000005,69.6
7.726,69.6
7.727,69.8
7.728,69.6
7.729,69.6
7.73,69.6
7.731,69.4
7.732,69.6
7.7330000000000005,69.4
7.734,69.6
7.735,69.4
7.736,69.4
7.737,69.6
7.738,69.6
7.739,69.4
7.74,69.6
7.7410000000000005,69.6
7.742,69.2
7.743,69.4
7.744,69.2
7.745,69.4
7.746,69.4
7.747,69.4
7.748,69.2
7.7490000000000006,69.2
7.75,69.2
7.751,69.2
7.752,69.2
7.753,69.4
7.7540000000000004,69.2
7.755,69.4
7.756,69.2
7.757000000000001,69.4
7.758,69.2
7.759,69.2
7.76,69.4
7.761,69.2
7.7620000000000005,69.2
7.763,69.0
7.764,69.2
7.765000000000001,69.0
7.766,69.0
7.767,69.2
7.768,69.0
7.769,69.0
7.7700000000000005,69.0
7.771,69.2
7.772,68.8
7.773000000000001,69.0
7.774,69.0
7.775,68.8
7.776,69.0
7.777,69.0
7.7780000000000005,69.0
7.779,69.0
7.78,68.8
7.781000000000001,68.8
7.782,69.0
7.783,69.0
7.784,68.8
7.785,68.8
7.7860000000000005,69.0
7.787,68.8
7.788,69.0
7.789000000000001,68.8
7.79,68.8
7.791,68.8
7.792,68.8
7.793,68.8
7.7940000000000005,68.8
7.795,68.8
7.796,68.8
7.797000000000001,68.8
7.798,68.6
7.799,68.8
7.8,68.6
7.801,68.8
7.8020000000000005,68.6
7.803,68.6
7.804,68.6
7.805000000000001,68.6
7.806,68.6
7.807,68.6
7.808,68.4
7.809,68.4
7.8100000000000005,68.6
7.811,68.4
7.812,68.6
7.813,68.4
7.814,68.6
7.815,68.4
7.816,68.4
7.817,68.6
7.8180000000000005,68.4
7.819,68.4
7.82,68.4
7.821,68.4
7.822,68.4
7.823,68.2
7.824,68.2
7.825,68.2
7.8260000000000005,68.4
7.827,68.4
7.828,68.2
7.829,68.2
7.83,68.4
7.831,68.2
7.832,68.2
7.833,68.0
7.8340000000000005,68.2
7.835,68.4
7.836,68.0
7.837,68.0
7.838,68.0
7.839,68.2
7.84,68.2
7.841,68.0
7.8420000000000005,68.2
7.843,68.0
7.844,68.0
7.845,68.2
7.846,67.8
7.847,68.0
7.848,68.0
7.849,68.0
7.8500000000000005,68.0
7.851,68.0
7.852,68.0
7.853,67.8
7.854,67.8
7.855,68.0
7.856,68.0
7.857,67.8
7.8580000000000005,67.8
7.859,67.8
7.86,68.0
7.861,67.8
7.862,67.8
7.863,67.8
7.864,67.8
7.865,67.8
7.8660000000000005,67.8
7.867,67.8
7.868,67.8
7.869,67.8
7.87,67.8
7.871,67.6
7.872,67.8
7.873,67.6
7.8740000000000006,67.6
7.875,67.6
7.876,67.6
7.877,67.8
7.878,67.6
7.8790000000000004,67.6
7.88,67.6
7.881,67.6
7.882000000000001,67.6
7.883,67.4
7.884,67.6
7.885,67.6
7.886,67.4
7.8870000000000005,67.6
7.888,67.4
7.889,67.6
7.890000000000001,67.6
7.891,67.6
7.892,67.4
7.893,67.6
7.894,67.4
7.8950000000000005,67.4
7.896,67.4
7.897,67.4
7.898000000000001,67.2
7.899,67.2
7.9,67.2
7.901,67.2
7.902,67.2
7.9030000000000005,67.2
7.904,67.4
7.905,67.4
7.906000000000001,67.2
7.907,67.2
7.908,67.2
7.909,67.2
7.91,67.2
7.9110000000000005,67.2
7.912,67.0
7.913,67.2
7.914000000000001,67.2
7.915,67.2
7.916,67.2
7.917,67.2
7.918,67.0
7.9190000000000005,67.2
7.92,67.0
7.921,67.0
7.922000000000001,66.8
7.923,67.0
7.924,66.8
7.925,67.0
7.926,67.0
7.9270000000000005,67.0
7.928,67.0
7.929,67.0
7.930000000000001,67.0
7.931,66.8
7.932,66.8
7.933,66.8
7.934,67.0
7.9350000000000005,66.8
7.936,66.8
7.937,66.8
7.938,67.0
7.939,66.8
7.94,66.8
7.941,66.8
7.942,66.8
7.9430000000000005,66.6
7.944,66.6
7.945,66.6
7.946,66.8
7.947,66.6
7.948,66.6
7.949,66.6
7.95,66.8
7.9510000000000005,66.6
7.952,66.4
7.953,66.6
7.954,66.8
7.955,66.6
7.956,66.6
7.957,66.6
7.958,66.4
7.9590000000000005,66.6
7.96,66.4
7.961,66.4
7.962,66.4
7.963,66.6
7.964,66.4
7.965,66.6
7.966,66.2
7.9670000000000005,66.4
7.968,66.4
7.969,66.4
7.97,66.4
7.971,66.4
7.972,66.4
7.973,66.2
7.974,66.2
7.9750000000000005,66.2
7.976,66.0
7.977,66.4
7.978,66.4
7.979,66.2
7.98,66.4
7.981,66.4
7.982,66.4
7.9830000000000005,66.4
7.984,66.2
7.985,66.2
7.986,66.2
7.987,66.0
7.988,66.2
7.989,66.0
7.99,66.2
7.9910000000000005,66.2
7.992,66.2
7.993,66.0
7.994,66.2
7.995,66.4
7.996,66.0
7.997,66.0
7.998,66.2
7.9990000000000006,66.0
8.0,66.0
8.001,66.0
8.002,66.0
8.003,65.8
8.004,66.0
8.005,66.2
8.006,65.8
8.007,65.8
8.008000000000001,65.8
8.009,65.8
8.01,66.0
8.011000000000001,65.8
8.012,66.0
8.013,65.8
8.014,66.0
8.015,66.0
8.016,65.8
8.017,65.8
8.018,65.8
8.019,65.8
8.02,66.0
8.021,65.8
8.022,65.8
8.023,65.8
8.024000000000001,65.8
8.025,65.8
8.026,65.8
8.027000000000001,65.8
8.028,65.8
8.029,65.6
8.03,65.8
8.031,65.8
8.032,65.8
8.033,65.8
8.034,65.6
8.035,65.6
8.036,65.6
8.037,65.8
8.038,65.8
8.039,65.6
8.040000000000001,65.6
8.041,65.6
8.042,65.8
8.043000000000001,65.6
8.044,65.2
8.045,65.6
8.046,65.6
8.047,65.4
8.048,65.8
8.049,65.6
8.05,65.8
8.051,65.6
8.052,65.6
8.053,65.4
8.054,65.6
8.055,65.4
8.056000000000001,65.2
8.057,65.6
8.058,65.4
8.059000000000001,65.4
8.06,65.4
8.061,65.4
8.062,65.4
8.063,65.4
8.064,65.2
8.065,65.0
8.066,65.4
8.067,65.4
8.068,65.2
8.069,65.2
8.07,65.2
8.071,65.2
8.072000000000001,65.2
8.073,65.2
8.074,65.2
8.075,65.0
8.076,65.6
8.077,65.2
8.078,65.2
8.079,65.2
8.08,65.2
8.081,65.2
8.082,65.2
8.083,65.2
8.084,65.2
8.085,65.2
8.086,65.0
8.087,65.2
8.088000000000001,65.0
8.089,65.2
8.09,65.2
8.091,65.0
8.092,64.8
8.093,64.8
8.094,65.2
8.095,65.0
8.096,65.0
8.097,65.0
8.098,64.8
8.099,65.0
8.1,65.2
8.101,65.2
8.102,65.0
8.103,65.2
8.104000000000001,65.0
8.105,64.8
8.106,64.8
8.107,65.0
8.108,65.0
8.109,64.8
8.11,65.0
8.111,65.0
8.112,65.0
8.113,65.0
8.114,65.0
8.115,65.0
8.116,64.8
8.117,65.0
8.118,64.8
8.119,65.0
8.120000000000001,64.6
8.121,65.0
8.122,64.6
8.123,65.0
8.124,64.6
8.125,65.0
8.126,64.8
8.127,64.8
8.128,64.8
8.129,64.6
8.13,64.8
8.131,64.8
8.132,65.0
8.133000000000001,64.6
8.134,64.8
8.135,64.8
8.136000000000001,64.8
8.137,64.8
8.138,64.6
8.139,64.8
8.14,64.6
8.141,64.8
8.142,64.8
8.143,64.4
8.144,64.6
8.145,64.4
8.146,64.8
8.147,64.8
8.148,64.6
8.149000000000001,64.8
8.15,64.6
8.151,64.6
8.152000000000001,64.8
8.153,65.0
8.154,64.6
8.155,64.6
8.156,64.6
8.157,64.6
8.158,64.4
8.159,64.6
8.16,64.8
8.161,64.6
8.162,64.4
8.163,64.6
8.164,64.4
8.165000000000001,64.4
8.166,64.6
8.167,64.8
8.168000000000001,64.8
8.169,64.4
8.17,64.4
8.171,64.6
8.172,64.6
8.173,64.4
8.174,64.4
8.175,64.6
8.176,64.4
8.177,64.6
8.178,64.4
8.179,64.4
8.18,64.6
8.181000000000001,64.4
8.182,64.4
8.183,64.4
8.184000000000001,64.6
8.185,64.2
8.186,64.6
8.187,64.4
8.188,64.6
8.189,64.4
8.19,64.4
8.191,64.2
8.192,64.4
8.193,64.6
8.194,64.4
8.195,64.2
8.196,64.4
8.197000000000001,64.2
8.198,64.4
8.199,64.4
8.2,64.4
8.201,64.4
8.202,64.2
8.203,64.4
8.204,64.2
8.205,64.4
8.206,64.2
8.207,64.4
8.208,64.4
8.209,64.4
8.21,64.4
8.211,64.2
8.212,64.4
8.213000000000001,64.6
8.214,64.2
8.215,64.4
8.216,64.2
8.217,64.4
8.218,64.4
8.219,64.2
8.22,64.4
8.221,64.4
8.222,64.2
8.223,64.2
8.224,64.4
8.225,64.2
8.226,64.2
8.227,64.2
8.228,64.2
8.229000000000001,64.2
8.23,64.6
8.231,64.4
8.232,64.2
8.233,64.2
8.234,64.0
8.235,64.2
8.236,64.2
8.237,64.2
8.238,64.0
8.239,64.2
8.24,64.2
8.241,64.4
8.242,64.0
8.243,64.0
8.244,64.0
8.245000000000001,64.0
8.246,64.4
8.247,64.2
8.248,64.2
8.249,64.2
8.25,64.2
8.251,64.2
8.252,64.2
8.253,64.2
8.254,64.0
8.255,64.2
8.256,64.0
8.257,64.2
8.258000000000001,64.0
8.259,64.2
8.26,64.2
8.261000000000001,64.2
8.262,64.0
8.263,63.8
8.264,64.2
8.265,64.2
8.266,64.2
8.267,64.2
8.268,64.0
8.269,64.2
8.27,64.0
8.271,64.2
8.272,64.2
8.273,63.8
8.274000000000001,64.2
8.275,64.2
8.276,64.0
8.277000000000001,63.8
8.278,64.2
8.279,64.2
8.28,64.2
8.281,64.2
8.282,64.0
8.283,64.2
8.284,63.8
8.285,64.2
8.286,63.8
8.287,64.2
8.288,64.0
8.289,64.0
8.290000000000001,63.8
8.291,63.8
8.292,63.8
8.293000000000001,64.0
8.294,63.8
8.295,64.0
8.296,64.0
8.297,64.0
8.298,64.2
8.299,64.2
8.3,64.0
8.301,64.0
8.302,64.0
8.303,63.8
8.304,63.8
8.305,64.0
8.306000000000001,64.0
8.307,63.8
8.308,64.0
8.309000000000001,63.8
8.31,63.8
8.311,64.2
8.312,64.0
8.313,64.0
8.314,63.6
8.315,63.8
8.316,63.8
8.317,64.0
8.318,64.0
8.319,63.8
8.32,64.0
8.321,64.2
8.322000000000001,64.0
8.323,64.0
8.324,64.0
8.325,64.0
8.326,64.0
8.327,63.8
8.328,63.8
8.329,64.0
8.33,64.0
8.331,63.8
8.332,63.4
8.333,63.8
8.334,64.0
8.335,64.0
8.336,64.0
8.337,63.8
8.338000000000001,64.0
8.339,64.0
8.34,64.0
8.341,63.8
8.342,64.0
8.343,63.8
8.344,63.8
8.345,64.0
8.346,64.0
8.347,64.0
8.348,63.6
8.349,63.8
8.35,64.0
8.351,64.0
8.352,64.0
8.353,64.0
8.354000000000001,64.0
8.355,63.8
8.356,63.6
8.357,63.8
8.358,63.8
8.359,63.8
8.36,63.8
8.361,63.8
8.362,63.8
8.363,63.8
8.364,64.0
8.365,63.8
8.366,64.0
8.367,63.8
8.368,63.6
8.369,63.8
8.370000000000001,63.6
8.371,63.6
8.372,63.8
8.373,63.8
8.374,63.8
8.375,63.8
8.376,63.6
8.377,63.8
8.378,64.0
8.379,64.0
8.38,63.8
8.381,63.8
8.382,63.8
8.383000000000001,63.6
8.384,63.6
8.385,63.8
8.386000000000001,63.6
8.387,63.8
8.388,63.8
8.389,63.8
8.39,63.8
8.391,63.8
8.392,63.8
8.393,63.6
8.394,63.8
8.395,63.6
8.396,63.6
8.397,63.8
8.398,63.8
8.399000000000001,63.8
8.4,63.8
8.401,64.0
8.402000000000001,63.6
8.403,63.6
8.404,63.6
8.405,63.8
8.406,63.6
8.407,63.8
8.408,64.0
8.409,63.6
8.41,63.8
8.411,63.8
8.412,63.6
8.413,63.8
8.414,63.8
8.415000000000001,63.8
8.416,63.8
8.417,63.8
8.418000000000001,63.8
8.419,63.8
8.42,63.8
8.421,63.8
8.422,64.0
8.423,63.8
8.424,63.8
8.425,63.8
8.426,63.8
8.427,63.8
8.428,63.8
8.429,63.8
8.43,63.8
8.431000000000001,63.8
8.432,63.6
8.433,63.8
8.434000000000001,63.8
8.435,63.8
8.436,63.8
8.437,63.8
8.438,63.8
8.439,64.0
8.44,63.8
8.441,63.6
8.442,63.6
8.443,63.8
8.444,63.8
8.445,63.8
8.446,64.0
8.447000000000001,63.8
8.448,64.0
8.449,63.8
8.45,64.0
8.451,63.8
8.452,63.8
8.453,63.8
8.454,63.8
8.455,63.8
8.456,63.8
8.457,63.8
8.458,64.0
8.459,63.8
8.46,63.6
8.461,64.0
8.462,63.8
8.463000000000001,63.8
8.464,64.0
8.465,63.8
8.466,63.8
8.467,63.8
8.468,63.8
8.469,64.0
8.47,63.8
8.471,63.6
8.472,64.0
8.473,63.8
8.474,64.0
8.475,63.8
8.476,63.8
8.477,64.0
8.478,63.8
8.479000000000001,63.8
8.48,64.2
8.481,64.0
8.482,63.6
8.483,63.8
8.484,64.0
8.485,64.0
8.486,64.0
8.487,63.8
8.488,63.8
8.489,63.8
8.49,64.0
8.491,64.0
8.492,64.0
8.493,63.8
8.494,63.8
8.495000000000001,64.0
8.496,64.0
8.497,63.8
8.498,64.0
8.499,64.0
8.5,64.2
8.501,64.0
8.502,63.8
8.503,64.0
8.504,64.2
8.505,64.0
8.506,64.0
8.507,64.2
8.508000000000001,63.8
8.509,64.2
8.51,64.2
8.511000000000001,64.0
8.512,64.2
8.513,64.2
8.514,64.0
8.515,64.0
8.516,63.8
8.517,64.0
8.518,64.0
8.519,64.0
8.52,64.0
8.521,64.0
8.522,64.0
8.523,64.2
8.524000000000001,63.8
8.525,64.2
8.526,64.2
8.527000000000001,64.2
8.528,64.2
8.529,64.0
8.53,64.0
8.531,64.0
8.532,64.4
8.533,64.2
8.534,63.8
8.535,63.8
8.536,64.2
8.537,64.2
8.538,64.2
8.539,64.0
8.540000000000001,64.0
8.541,64.0
8.542,64.0
8.543000000000001,64.2
8.544,64.0
8.545,64.2
8.546,64.0
8.547,64.2
8.548,64.2
8.549,64.0
8.55,64.0
8.551,64.0
8.552,64.2
8.553,64.2
8.554,64.0
8.555,63.8
8.556000000000001,64.2
8.557,64.2
8.558,64.0
8.559000000000001,64.0
8.56,64.0
8.561,64.0
8.562,64.2
8.563,64.2
8.564,64.2
8.565,64.2
8.566,64.2
8.567,64.0
8.568,64.2
8.569,64.0
8.57,64.2
8.571,64.2
8.572000000000001,64.2
8.573,64.0
8.574,64.0
8.575000000000001,64.2
8.576,64.2
8.577,64.2
8.578,64.2
8.579,64.4
8.58,64.4
8.581,64.4
8.582,64.4
8.583,64.2
8.584,64.2
8.585,64.2
8.586,64.2
8.587,64.0
8.588000000000001,64.2
8.589,64.2
8.59,64.2
8.591,64.0
8.592,64.2
8.593,64.2
8.594,64.2
8.595,64.4
8.596,64.2
8.597,64.2
8.598,64.4
8.599,64.4
8.6,64.2
8.601,64.4
8.602,64.4
8.603,64.4
8.604000000000001,64.2
8.605,64.4
8.606,64.4
8.607,64.4
8.608,64.2
8.609,64.6
8.61,64.4
8.611,64.2
8.612,64.4
8.613,64.4
8.614,64.4
8.615,64.2
8.616,64.2
8.617,64.4
8.618,64.6
8.619,64.4
8.620000000000001,64.6
8.621,64.6
8.622,64.6
8.623,64.2
8.624,64.4
8.625,64.6
8.626,64.4
8.627,64.4
8.628,64.4
8.629,64.2
8.63,64.4
8.631,64.4
8.632,64.6
8.633000000000001,64.4
8.634,64.4
8.635,64.8
8.636000000000001,64.6
8.637,64.6
8.638,64.4
8.639,64.4
8.64,64.4
8.641,64.4
8.642,64.6
8.643,64.6
8.644,64.6
8.645,64.6
8.646,64.6
8.647,64.6
8.648,64.8
8.649000000000001,64.8
8.65,64.4
8.651,64.8
8.652000000000001,64.4
8.653,64.6
8.654,64.6
8.655,64.8
8.656,64.6
8.657,64.6
8.658,64.6
8.659,64.6
8.66,64.6
8.661,64.8
8.662,64.8
8.663,64.8
8.664,64.4
8.665000000000001,64.6
8.666,64.6
8.667,64.6
8.668000000000001,64.6
8.669,64.4
8.67,64.8
8.671,64.6
8.672,64.6
8.673,64.4
8.674,64.8
8.675,64.8
8.676,64.8
8.677,64.8
8.678,65.0
8.679,64.8
8.68,64.4
8.681000000000001,64.8
8.682,64.6
8.683,64.8
8.684000000000001,64.8
8.685,65.0
8.686,64.6
8.687,64.8
8.688,64.8
8.689,64.8
8.69,64.6
8.691,64.8
8.692,64.8
8.693,64.8
8.694,64.8
8.695,65.0
8.696,65.0
8.697000000000001,65.0
8.698,65.0
8.699,64.8
8.700000000000001,64.8
8.701,64.8
8.702,65.0
8.703,64.8
8.704,64.8
8.705,65.2
8.706,65.0
8.707,65.0
8.708,65.0
8.709,65.0
8.71,65.2
8.711,65.0
8.712,65.0
8.713000000000001,65.0
8.714,64.8
8.715,65.0
8.716,65.0
8.717,65.0
8.718,65.0
8.719,65.0
8.72,65.0
8.721,65.2
8.722,65.2
8.723,65.2
8.724,65.2
8.725,65.4
8.726,65.0
8.727,65.0
8.728,64.8
8.729000000000001,65.0
8.73,65.2
8.731,65.2
8.732,64.8
8.733,65.2
8.734,65.2
8.735,65.2
8.736,65.2
8.737,65.2
8.738,65.2
8.739,65.0
8.74,65.2
8.741,65.2
8.742,65.4
8.743,65.2
8.744,65.2
8.745000000000001,65.2
8.746,65.2
8.747,65.4
8.748,65.4
8.749,65.2
8.75,65.4
8.751,65.2
8.752,65.4
8.753,65.2
8.754,65.4
8.755,65.2
8.756,65.4
8.757,65.2
8.758000000000001,65.2
8.759,65.4
8.76,65.4
8.761000000000001,65.4
8.762,65.4
8.763,65.4
8.764,65.6
8.765,65.4
8.766,65.4
8.767,65.4
8.768,65.4
8.769,65.6
8.77,65.4
8.771,65.4
8.772,65.4
8.773,65.8
8.774000000000001,65.4
8.775,65.4
8.776,65.6
8.777000000000001,65.8
8.778,65.8
8.779,65.6
8.78,65.8
8.781,65.6
8.782,65.8
8.783,65.8
8.784,65.6
8.785,65.6
8.786,65.6
8.787,65.6
8.788,65.6
8.789,65.6
8.790000000000001,65.8
8.791,65.4
8.792,65.6
8.793000000000001,65.8
8.794,65.8
8.795,65.8
8.796,65.8
8.797,65.8
8.798,65.8
8.799,65.8
8.8,65.8
8.801,65.8
8.802,65.8
8.803,65.8
8.804,66.0
8.805,65.8
8.806000000000001,65.8
8.807,66.0
8.808,65.8
8.809000000000001,65.8
8.81,65.8
8.811,65.8
8.812,66.0
8.813,65.8
8.814,66.0
8.815,66.0
8.816,65.8
8.817,65.8
8.818,66.0
8.819,66.0
8.82,66.0
8.821,65.8
8.822000000000001,66.0
8.823,66.2
8.824,66.2
8.825000000000001,66.0
8.826,66.0
8.827,65.8
8.828,66.0
8.829,66.2
8.83,66.2
8.831,66.0
8.832,66.0
8.833,66.2
8.834,66.2
8.835,66.2
8.836,66.0
8.837,66.0
8.838000000000001,66.0
8.839,66.2
8.84,66.2
8.841,66.2
8.842,66.2
8.843,66.2
8.844,66.4
8.845,66.4
8.846,66.4
8.847,66.4
8.848,66.2
8.849,66.4
8.85,66.4
8.851,66.4
8.852,66.4
8.853,66.4
8.854000000000001,66.4
8.855,66.4
8.856,66.4
8.857,66.2
8.858,66.2
8.859,66.4
8.86,66.4
8.861,66.4
8.862,66.4
8.863,66.4
8.864,66.4
8.865,66.4
8.866,66.6
8.867,66.4
8.868,66.8
8.869,66.6
8.870000000000001,66.6
8.871,66.6
8.872,66.6
8.873,66.6
8.874,66.6
8.875,66.6
8.876,66.6
8.877,66.8
8.878,66.6
8.879,66.6
8.88,66.8
8.881,66.6
8.882,67.0
8.883000000000001,66.6
8.884,66.8
8.885,66.8
8.886000000000001,66.8
8.887,66.8
8.888,66.8
8.889,66.8
8.89,66.8
8.891,66.8
8.892,66.8
8.893,67.0
8.894,66.8
8.895,67.0
8.896,66.8
8.897,66.8
8.898,67.0
8.899000000000001,67.0
8.9,67.0
8.901,67.0
8.902000000000001,67.0
8.903,67.0
8.904,67.0
8.905,67.0
8.906,67.0
8.907,67.0
8.908,67.0
8.909,67.2
8.91,67.2
8.911,67.2
8.912,67.2
8.913,67.2
8.914,67.2
8.915000000000001,67.2
8.916,67.2
8.917,67.2
8.918000000000001,67.2
8.919,67.2
8.92,67.2
8.921,67.2
8.922,67.2
8.923,67.2
8.924,67.2
8.925,67.4
8.926,67.4
8.927,67.2
8.928,67.2
8.929,67.4
8.93,67.4
8.931000000000001,67.4
8.932,67.6
8.933,67.4
8.934000000000001,67.4
8.935,67.2
8.936,67.2
8.937,67.4
8.938,67.4
8.939,67.6
8.94,67.6
8.941,67.6
8.942,67.4
8.943,67.4
8.944,67.6
8.945,67.4
8.946,67.6
8.947000000000001,67.4
8.948,67.6
8.949,67.6
8.950000000000001,67.6
8.951,67.4
8.952,67.6
8.953,67.8
8.954,67.6
8.955,67.6
8.956,67.6
8.957,67.8
8.958,67.6
8.959,67.8
8.96,67.6
8.961,67.6
8.962,67.8
8.963000000000001,67.8
8.964,67.8
8.965,67.8
8.966,67.8
8.967,68.0
8.968,67.8
8.969,68.0
8.97,67.8
8.971,68.0
8.972,67.8
8.973,67.8
8.974,67.8
8.975,67.8
8.976,68.2
8.977,68.0
8.978,68.0
8.979000000000001,68.2
8.98,68.0
8.981,68.0
8.982,68.0
8.983,68.0
8.984,68.0
8.985,68.2
8.986,68.0
8.987,68.0
8.988,68.0
8.989,67.8
8.99,68.0
8.991,68.0
8.992,68.4
8.993,68.0
8.994,68.2
8.995000000000001,68.2
8.996,68.2
8.997,68.2
8.998,68.0
8.999,68.2
9.0,68.2
9.001,68.2
9.002,68.2
9.003,68.4
9.004,68.2
9.005,68.4
9.006,68.2
9.007,68.4
9.008000000000001,68.4
9.009,68.4
9.01,68.6
9.011000000000001,68.4
9.012,68.4
9.013,68.4
9.014,68.6
9.015,68.4
9.016,68.4
9.017,68.6
9.018,68.6
9.019,68.4
9.02,68.6
9.021,68.6
9.022,68.6
9.023,68.8
9.024000000000001,68.4
9.025,68.6
9.026,68.4
9.027000000000001,68.8
9.028,68.8
9.029,68.8
9.03,68.6
9.031,68.8
9.032,68.6
9.033,68.8
9.034,68.8
9.035,68.8
9.036,68.6
9.037,68.8
9.038,68.6
9.039,68.8
9.040000000000001,69.0
9.041,69.0
9.042,68.8
9.043000000000001,68.8
9.044,68.8
9.045,69.2
9.046,68.8
9.047,69.0
9.048,69.0
9.049,68.8
9.05,68.8
9.051,69.0
9.052,69.0
9.053,69.0
9.054,69.0
9.055,69.0
9.056000000000001,69.2
9.057,69.0
9.058,69.0
9.059000000000001,69.2
9.06,69.0
9.061,69.2
9.062,69.0
9.063,69.0
9.064,69.2
9.065,69.0
9.066,69.0
9.067,69.0
9.068,69.2
9.069,69.0
9.07,69.2
9.071,69.2
9.072000000000001,69.2
9.073,69.2
9.074,69.2
9.075000000000001,69.4
9.076,69.2
9.077,69.6
9.078,69.4
9.079,69.4
9.08,69.4
9.081,69.4
9.082,69.4
9.083,69.4
9.084,69.4
9.085,69.4
9.086,69.4
9.087,69.6
9.088000000000001,69.4
9.089,69.6
9.09,69.6
9.091,69.6
9.092,69.6
9.093,69.6
9.094,69.6
9.095,69.6
9.096,69.6
9.097,69.6
9.098,69.6
9.099,69.6
9.1,69.6
9.101,69.6
9.102,69.8
9.103,69.8
9.104000000000001,69.8
9.105,69.8
9.106,69.8
9.107,69.8
9.108,69.8
9.109,69.8
9.11,69.6
9.111,69.8
9.112,69.8
9.113,70.0
9.114,69.8
9.115,69.8
9.116,69.8
9.117,69.8
9.118,69.8
9.119,70.0
9.120000000000001,69.8
9.121,70.0
9.122,70.0
9.123,69.8
9.124,69.8
9.125,70.0
9.126,70.2
9.127,70.2
9.128,70.2
9.129,69.8
9.13,70.0
9.131,70.0
9.132,70.0
9.133000000000001,69.8
9.134,70.2
9.135,70.0
9.136000000000001,70.0
9.137,70.2
9.138,70.0
9.139,70.4
9.14,70.0
9.141,70.2
9.142,70.2
9.143,70.4
9.144,70.2
9.145,70.2
9.146,70.4
9.147,70.2
9.148,70.2
9.149000000000001,70.0
9.15,70.4
9.151,70.4
9.152000000000001,70.4
9.153,70.2
9.154,70.2
9.155,70.4
9.156,70.4
9.157,70.4
9.158,70.4
9.159,70.2
9.16,70.2
9.161,70.6
9.162,70.4
9.163,70.4
9.164,70.4
9.165000000000001,70.6
9.166,70.4
9.167,70.4
9.168000000000001,70.2
9.169,70.4
9.17,70.6
9.171,70.6
9.172,70.8
9.173,70.6
9.174,70.4
9.175,70.4
9.176,70.6
9.177,70.4
9.178,70.8
9.179,70.6
9.18,70.4
9.181000000000001,70.6
9.182,70.6
9.183,70.8
9.184000000000001,70.6
9.185,70.6
9.186,70.8
9.187,70.6
9.188,70.6
9.189,70.8
9.19,70.6
9.191,70.8
9.192,70.8
9.193,71.0
9.194,70.8
9.195,70.6
9.196,70.8
9.197000000000001,70.8
9.198,70.8
9.199,71.0
9.200000000000001,70.8
9.201,70.8
9.202,70.8
9.203,71.0
9.204,71.0
9.205,70.8
9.206,71.0
9.207,70.8
9.208,71.0
9.209,70.8
9.21,71.0
9.211,71.0
9.212,71.0
9.213000000000001,70.8
9.214,71.0
9.215,71.0
9.216000000000001,71.0
9.217,70.8
9.218,71.0
9.219,71.0
9.22,71.2
9.221,71.0
9.222,71.0
9.223,71.0
9.224,71.0
9.225,71.2
9.226,71.2
9.227,71.0
9.228,71.2
9.229000000000001,71.2
9.23,71.4
9.231,71.2
9.232,71.0
9.233,71.0
9.234,71.0
9.235,71.0
9.236,71.4
9.237,71.2
9.238,71.4
9.239,71.2
9.24,71.2
9.241,71.4
9.242,71.4
9.243,71.4
9.244,71.4
9.245000000000001,71.4
9.246,71.2
9.247,71.2
9.248,71.2
9.249,71.4
9.25,71.4
9.251,71.4
9.252,71.4
9.253,71.4
9.254,71.4
9.255,71.6
9.256,71.6
9.257,71.6
9.258000000000001,71.4
9.259,71.4
9.26,71.6
9.261000000000001,71.6
9.262,71.4
9.263,71.4
9.264,71.6
9.265,71.6
9.266,71.4
9.267,71.2
9.268,71.6
9.269,71.6
9.27,71.6
9.271,71.6
9.272,71.8
9.273,71.6
9.274000000000001,71.4
9.275,71.6
9.276,71.4
9.277000000000001,71.6
9.278,71.6
9.279,71.6
9.28,71.2
9.281,71.4
9.282,71.8
9.283,71.6
9.284,71.8
9.285,71.8
9.286,71.6
9.287,71.6
9.288,72.0
9.289,71.6
9.290000000000001,71.8
9.291,72.0
9.292,72.0
9.293000000000001,71.6
9.294,71.6
9.295,71.6
9.296,72.0
9.297,72.0
9.298,71.8
9.299,72.0
9.3,71.8
9.301,72.0
9.302,72.0
9.303,71.8
9.304,72.0
9.305,72.0
9.306000000000001,72.0
9.307,72.0
9.308,71.8
9.309000000000001,72.0
9.31,71.8
9.311,72.0
9.312,72.0
9.313,72.0
9.314,72.0
9.315,72.0
9.316,71.8
9.317,72.2
9.318,72.0
9.319,72.0
9.32,72.0
9.321,71.8
9.322000000000001,71.8
9.323,71.8
9.324,72.0
9.325000000000001,72.0
9.326,71.8
9.327,71.8
9.328,72.2
9.329,72.0
9.33,72.0
9.331,72.0
9.332,72.0
9.333,72.0
9.334,72.0
9.335,72.2
9.336,72.0
9.337,72.2
9.338000000000001,72.2
9.339,72.2
9.34,72.2
9.341000000000001,72.2
9.342,72.2
9.343,72.2
9.344,72.2
9.345,72.0
9.346,72.2
9.347,72.2
9.348,72.2
9.349,72.0
9.35,72.2
9.351,72.0
9.352,72.2
9.353,72.2
9.354000000000001,72.4
9.355,72.4
9.356,72.2
9.357,72.2
9.358,72.2
9.359,72.2
9.36,72.4
9.361,72.2
9.362,72.2
9.363,72.4
9.364,72.2
9.365,72.2
9.366,72.4
9.367,72.6
9.368,72.4
9.369,72.4
9.370000000000001,72.4
9.371,72.4
9.372,72.4
9.373,72.2
9.374,72.4
9.375,72.4
9.376,72.4
9.377,72.4
9.378,72.4
9.379,72.2
9.38,72.4
9.381,72.6
9.382,72.2
9.383000000000001,72.4
9.384,72.4
9.385,72.4
9.386000000000001,72.2
9.387,72.4
9.388,72.6
9.389,72.6
9.39,72.4
9.391,72.6
9.392,72.4
9.393,72.4
9.394,72.4
9.395,72.6
9.396,72.4
9.397,72.6
9.398,72.6
9.399000000000001,72.6
9.4,72.4
9.401,72.6
9.402000000000001,72.6
9.403,72.6
9.404,72.6
9.405,72.6
9.406,72.6
9.407,72.6
9.408,72.6
9.409,72.6
9.41,72.6
9.411,72.4
9.412,72.6
9.413,72.6
9.414,72.6
9.415000000000001,72.4
9.416,72.6
9.417,72.8
9.418000000000001,72.8
9.419,72.6
9.42,72.6
9.421,72.6
9.422,72.6
9.423,72.8
9.424,72.8
9.425,72.6
9.426,72.6
9.427,72.8
9.428,72.8
9.429,72.6
9.43,72.6
9.431000000000001,72.6
9.432,72.6
9.433,72.8
9.434000000000001,72.6
9.435,72.8
9.436,72.6
9.437,72.6
9.438,72.8
9.439,72.8
9.44,72.8
9.441,72.8
9.442,72.6
9.443,72.8
9.444,72.8
9.445,72.8
9.446,72.8
9.447000000000001,72.8
9.448,72.8
9.449,72.8
9.450000000000001,72.8
9.451,72.6
9.452,72.8
9.453,72.8
9.454,72.8
9.455,72.8
9.456,72.8
9.457,72.8
9.458,72.8
9.459,73.0
9.46,72.8
9.461,72.8
9.462,73.0
9.463000000000001,72.8
9.464,72.8
9.465,72.6
9.466000000000001,72.8
9.467,73.0
9.468,72.8
9.469,72.8
9.47,72.8
9.471,72.8
9.472,72.6
9.473,72.8
9.474,72.8
9.475,72.8
9.476,73.0
9.477,73.0
9.478,72.6
9.479000000000001,72.8
9.48,73.0
9.481,73.0
9.482,72.8
9.483,73.0
9.484,72.8
9.485,73.0
9.486,72.8
9.487,73.0
9.488,73.0
9.489,73.0
9.49,73.0
9.491,73.0
9.492,72.8
9.493,72.8
9.494,73.0
9.495000000000001,72.8
9.496,72.8
9.497,73.0
9.498,73.0
9.499,73.0
9.5,73.0
9.501,72.8
9.502,73.0
9.503,72.8
9.504,73.2
9.505,73.0
9.506,72.8
9.507,73.0
9.508000000000001,73.0
9.509,73.0
9.51,72.8
9.511000000000001,73.0
9.512,73.0
9.513,73.2
9.514,72.8
9.515,73.0
9.516,73.0
9.517,73.0
9.518,73.0
9.519,73.0
9.52,72.8
9.521,72.8
9.522,73.0
9.523,73.0
9.524000000000001,72.8
9.525,72.8
9.526,73.2
9.527000000000001,73.2
9.528,73.0
9.529,72.8
9.53,73.0
9.531,72.8
9.532,73.0
9.533,72.8
9.534,73.0
9.535,73.0
9.536,73.0
9.537,73.0
9.538,73.0
9.539,73.2
9.540000000000001,73.2
9.541,73.0
9.542,73.2
9.543000000000001,73.0
9.544,73.0
9.545,73.0
9.546,73.0
9.547,73.0
9.548,73.2
9.549,72.8
9.55,72.8
9.551,73.0
9.552,73.0
9.553,73.0
9.554,73.0
9.555,73.0
9.556000000000001,73.0
9.557,73.0
9.558,73.2
9.559000000000001,73.0
9.56,73.0
9.561,73.0
9.562,73.0
9.563,73.0
9.564,73.0
9.565,73.2
9.566,73.0
9.567,73.0
9.568,73.0
9.569,73.2
9.57,73.0
9.571,72.8
9.572000000000001,73.0
9.573,73.0
9.574,73.0
9.575000000000001,73.0
9.576,73.0
9.577,73.0
9.578,73.0
9.579,73.2
9.58,73.0
9.581,72.8
9.582,72.8
9.583,72.8
9.584,73.0
9.585,73.0
9.586,73.2
9.587,73.0
9.588000000000001,73.0
9.589,73.0
9.59,72.8
9.591000000000001,73.0
9.592,73.0
9.593,73.0
9.594,73.0
9.595,73.0
9.596,73.2
9.597,73.0
9.598,73.0
9.599,73.0
9.6,72.8
9.601,73.0
9.602,73.0
9.603,73.2
9.604000000000001,73.0
9.605,72.8
9.606,73.0
9.607,72.8
9.608,73.2
9.609,73.0
9.61,73.0
9.611,72.8
9.612,72.8
9.613,73.0
9.614,73.0
9.615,73.0
9.616,73.0
9.617,73.0
9.618,73.0
9.619,72.8
9.620000000000001,72.6
9.621,73.0
9.622,73.0
9.623,72.8
9.624,73.0
9.625,73.0
9.626,72.8
9.627,73.0
9.628,72.8
9.629,72.8
9.63,72.8
9.631,72.8
9.632,72.8
9.633000000000001,73.0
9.634,73.0
9.635,72.6
9.636000000000001,73.0
9.637,73.0
9.638,73.0
9.639,73.0
9.64,72.8
9.641,73.0
9.642,72.8
9.643,72.6
9.644,72.8
9.645,73.0
9.646,72.8
9.647,73.0
9.648,72.6
9.649000000000001,72.8
9.65,73.0
9.651,73.0
9.652000000000001,73.0
9.653,73.0
9.654,72.8
9.655,72.8
9.656,72.8
9.657,72.8
9.658,72.8
9.659,72.6
9.66,73.0
9.661,73.0
9.662,72.8
9.663,72.6
9.664,72.8
9.665000000000001,72.8
9.666,72.8
9.667,72.8
9.668000000000001,72.8
9.669,72.8
9.67,72.6
9.671,72.8
9.672,72.8
9.673,72.8
9.674,72.8
9.675,72.8
9.676,72.6
9.677,72.8
9.678,72.8
9.679,72.8
9.68,72.6
9.681000000000001,72.8
9.682,72.6
9.683,72.6
9.684000000000001,72.6
9.685,72.6
9.686,72.6
9.687,72.6
9.688,72.8
9.689,72.6
9.69,72.6
9.691,72.6
9.692,72.8
9.693,72.6
9.694,72.8
9.695,72.8
9.696,72.4
9.697000000000001,72.4
9.698,72.6
9.699,72.6
9.700000000000001,72.6
9.701,72.8
9.702,72.6
9.703,72.6
9.704,72.4
9.705,72.4
9.706,72.6
9.707,72.6
9.708,72.8
9.709,72.6
9.71,73.0
9.711,72.4
9.712,72.4
9.713000000000001,72.8
9.714,72.6
9.715,72.8
9.716000000000001,72.6
9.717,72.6
9.718,72.2
9.719,72.4
9.72,72.6
9.721,72.6
9.722,72.4
9.723,72.4
9.724,72.6
9.725,72.6
9.726,72.6
9.727,72.2
9.728,72.4
9.729000000000001,72.2
9.73,72.4
9.731,72.6
9.732,72.6
9.733,72.4
9.734,72.4
9.735,72.4
9.736,72.4
9.737,72.4
9.738,72.6
9.739,72.4
9.74,72.4
9.741,72.4
9.742,72.4
9.743,72.2
9.744,72.4
9.745000000000001,72.4
9.746,72.4
9.747,72.2
9.748,72.2
9.749,72.2
9.75,72.4
9.751,72.4
9.752,72.6
9.753,72.2
9.754,72.2
9.755,72.4
9.756,72.4
9.757,72.4
9.758000000000001,72.0
9.759,72.4
9.76,72.4
9.761000000000001,72.2
9.762,72.2
9.763,72.4
9.764,72.2
9.765,72.2
9.766,72.2
9.767,72.2
9.768,72.2
9.769,72.0
9.77,72.2
9.771,72.0
9.772,72.4
9.773,72.2
9.774000000000001,72.4
9.775,72.0
9.776,72.2
9.777000000000001,72.2
9.778,72.0
9.779,72.0
9.78,72.2
9.781,72.2
9.782,72.0
9.783,72.0
9.784,72.2
9.785,72.0
9.786,72.0
9.787,72.2
9.788,72.2
9.789,71.8
9.790000000000001,72.0
9.791,72.0
9.792,72.0
9.793000000000001,72.2
9.794,72.2
9.795,72.0
9.796,72.0
9.797,72.0
9.798,71.8
9.799,72.2
9.8,72.0
9.801,72.0
9.802,72.0
9.803,71.8
9.804,72.0
9.805,71.8
9.806000000000001,72.0
9.807,72.0
9.808,72.0
9.809000000000001,72.0
9.81,72.0
9.811,71.8
9.812,71.8
9.813,72.0
9.814,72.2
9.815,72.0
9.816,71.8
9.817,71.8
9.818,71.8
9.819,72.0
9.82,72.0
9.821,71.8
9.822000000000001,71.8
9.823,72.0
9.824,72.0
9.825000000000001,71.8
9.826,71.8
9.827,71.8
9.828,71.8
9.829,71.8
9.83,72.0
9.831,72.0
9.832,71.8
9.833,71.6
9.834,71.8
9.835,71.8
9.836,71.8
9.837,71.6
9.838000000000001,71.6
9.839,71.6
9.84,71.6
9.841000000000001,71.6
9.842,71.6
9.843,72.0
9.844,71.6
9.845,71.6
9.846,71.6
9.847,71.4
9.848,71.4
9.849,71.6
9.85,71.4
9.851,71.6
9.852,71.4
9.853,71.4
9.854000000000001,71.6
9.855,71.6
9.856,71.4
9.857,71.4
9.858,71.6
9.859,71.4
9.86,71.4
9.861,71.4
9.862,71.4
9.863,71.6
9.864,71.4
9.865,71.4
9.866,71.6
9.867,71.4
9.868,71.2
9.869,71.6
9.870000000000001,71.2
9.871,71.4
9.872,71.4
9.873,71.4
9.874,71.2
9.875,71.2
9.876,71.4
9.877,71.2
9.878,71.2
9.879,71.4
9.88,71.2
9.881,71.4
9.882,71.2
9.883000000000001,71.4
9.884,71.2
9.885,71.2
9.886000000000001,71.4
9.887,71.0
9.888,71.0
9.889,71.2
9.89,71.2
9.891,71.0
9.892,71.2
9.893,71.2
9.894,71.0
9.895,71.2
9.896,71.2
9.897,71.0
9.898,71.2
9.899000000000001,71.0
9.9,71.2
9.901,71.2
9.902000000000001,70.8
9.903,71.0
9.904,71.0
9.905,71.2
9.906,71.0
9.907,71.0
9.908,71.2
9.909,71.0
9.91,70.8
9.911,71.0
9.912,71.0
9.913,71.0
9.914,71.0
9.915000000000001,70.8
9.916,70.8
9.917,70.8
9.918000000000001,71.0
9.919,71.0
9.92,70.8
9.921,70.8
9.922,70.8
9.923,71.0
9.924,71.0
9.925,70.6
9.926,70.8
9.927,70.6
9.928,70.6
9.929,70.8
9.93,70.8
9.931000000000001,70.8
9.932,70.6
9.933,70.6
9.934000000000001,70.6
9.935,71.0
9.936,70.8
9.937,70.6
9.938,70.6
9.939,70.6
9.94,70.6
9.941,70.6
9.942,70.6
9.943,70.6
9.944,70.6
9.945,70.6
9.946,70.6
9.947000000000001,70.6
9.948,70.6
9.949,70.6
9.950000000000001,70.6
9.951,70.6
9.952,70.4
9.953,70.6
9.954,70.6
9.955,70.4
9.956,70.4
9.957,70.4
9.958,70.6
9.959,70.2
9.96,70.4
9.961,70.4
9.962,70.4
9.963000000000001,70.4
9.964,70.4
9.965,70.4
9.966000000000001,70.4
9.967,70.2
9.968,70.4
9.969,70.2
9.97,70.0
9.971,70.4
9.972,70.4
9.973,70.2
9.974,70.0
9.975,70.2
9.976,70.0
9.977,70.2
9.978,70.4
9.979000000000001,70.2
9.98,70.2
9.981,70.0
9.982000000000001,70.2
9.983,70.0
9.984,70.4
9.985,70.2
9.986,70.0
9.987,70.0
9.988,70.0
9.989,70.2
9.99,70.0
9.991,70.2
9.992,70.0
9.993,70.0
9.994,70.2
9.995000000000001,70.2
9.996,70.0
9.997,70.0
9.998,70.0
9.999,70.2
