####### Preamble ##########################
#	byt_nr=1
#	bit_nr=8
#	encdg=BIN
#	bn_fmt=RI
#	byt_or=MSB
#	nr_pt=10000
#	wfid="Ch1, DC coupling, 5.0E0 V/div, 1.0E0 s/div, 10000 points, Sample mode"
#	pt_fmt=Y
#	xincr=1.0E-3
#	pt_off=0
#	xzero=-5.0E0
#	xunit="s"
#	ymult=2.0E-1
#	yzero=0.0E0
#	yoff=5.7E1
#	yunit="V"
#######  Cursor ##########################
#VBA;IND;"s";-3.68E0;-4.02E0;4.0E-1;3.4E-1;CURSOR1;-5.4E0;-5.0E0;8.8E0;-8.0E0;1.68E1;CURSOR1;"V";CURSOR1;CURSOR1X;-3.24E1;-2.08E1;9.6E0;4.32E1;RECT;0.0E0;0.0E0;0.0E0;0.0E0;0.0E0;0.0E0;9.9E37;9.9E37;9.9E37;9.9E37;9.9E37;9.9E37;9.9E37;9.9E37;9.9E37;9.9E37;9.9E37;9.9E37
#######  Data ##########################
#RIB;REF1;CH1;1;10000;1
# Delete the above lines to open in excel ######

Time [s],volts [V]
0.0,64.0
0.001,67.6
0.002,66.8
0.003,66.6
0.004,66.6
0.005,66.6
0.006,66.6
0.007,65.2
0.008,65.2
0.009000000000000001,65.2
0.01,65.2
0.011,65.0
0.012,65.2
0.013000000000000001,65.0
0.014,65.0
0.015,65.0
0.016,65.2
0.017,65.2
0.018000000000000002,65.2
0.019,64.8
0.02,65.2
0.021,65.2
0.022,65.2
0.023,65.2
0.024,65.0
0.025,65.0
0.026000000000000002,65.0
0.027,65.0
0.028,65.0
0.029,65.0
0.03,65.0
0.031,64.8
0.032,65.0
0.033,65.0
0.034,64.8
0.035,65.0
0.036000000000000004,65.0
0.037,65.0
0.038,64.8
0.039,65.0
0.04,64.8
0.041,64.8
0.042,65.0
0.043000000000000003,65.0
0.044,64.8
0.045,64.8
0.046,65.0
0.047,64.8
0.048,64.6
0.049,64.8
0.05,64.8
0.051000000000000004,64.6
0.052000000000000005,65.0
0.053,64.8
0.054,64.8
0.055,64.8
0.056,65.0
0.057,64.8
0.058,64.8
0.059000000000000004,65.0
0.06,64.8
0.061,64.8
0.062,64.8
0.063,64.8
0.064,64.8
0.065,64.8
0.066,64.8
0.067,64.8
0.068,64.6
0.069,64.8
0.07,64.6
0.07100000000000001,64.8
0.07200000000000001,64.8
0.073,64.8
0.074,64.8
0.075,64.6
0.076,64.8
0.077,64.6
0.078,64.8
0.079,64.6
0.08,64.8
0.081,64.6
0.082,64.8
0.083,64.6
0.084,64.8
0.085,64.6
0.08600000000000001,64.8
0.08700000000000001,64.8
0.088,64.8
0.089,64.6
0.09,64.6
0.091,64.8
0.092,64.8
0.093,64.6
0.094,64.6
0.095,64.6
0.096,64.6
0.097,64.6
0.098,64.4
0.099,64.4
0.1,64.4
0.101,64.6
0.10200000000000001,64.6
0.10300000000000001,64.8
0.10400000000000001,64.6
0.105,64.6
0.106,64.6
0.107,64.6
0.108,64.6
0.109,64.6
0.11,64.6
0.111,64.6
0.112,64.4
0.113,64.6
0.114,64.4
0.115,64.4
0.116,64.4
0.117,64.6
0.11800000000000001,64.4
0.11900000000000001,64.4
0.12,64.4
0.121,64.8
0.122,64.6
0.123,64.6
0.124,64.4
0.125,64.2
0.126,64.4
0.127,64.4
0.128,64.4
0.129,64.4
0.13,64.4
0.131,64.4
0.132,64.4
0.133,64.4
0.134,64.6
0.135,64.6
0.136,64.4
0.137,64.4
0.138,64.4
0.139,64.6
0.14,64.2
0.14100000000000001,64.6
0.14200000000000002,64.4
0.14300000000000002,64.4
0.14400000000000002,64.6
0.145,64.4
0.146,64.4
0.147,64.2
0.148,64.6
0.149,64.2
0.15,64.4
0.151,64.6
0.152,64.2
0.153,64.4
0.154,64.4
0.155,64.6
0.156,64.2
0.157,64.6
0.158,64.4
0.159,64.2
0.16,64.2
0.161,64.4
0.162,64.4
0.163,64.2
0.164,64.4
0.165,64.4
0.166,64.2
0.167,64.4
0.168,64.4
0.169,64.2
0.17,64.4
0.171,64.2
0.17200000000000001,64.2
0.17300000000000001,64.4
0.17400000000000002,64.2
0.17500000000000002,64.2
0.176,64.4
0.177,64.2
0.178,64.2
0.179,64.2
0.18,64.2
0.181,64.4
0.182,64.2
0.183,64.4
0.184,64.2
0.185,64.4
0.186,64.4
0.187,64.2
0.188,64.2
0.189,64.2
0.19,64.2
0.191,64.4
0.192,64.2
0.193,64.2
0.194,64.4
0.195,64.2
0.196,64.2
0.197,64.0
0.198,64.0
0.199,64.0
0.2,64.0
0.201,64.2
0.202,64.2
0.203,64.2
0.20400000000000001,64.0
0.20500000000000002,64.4
0.20600000000000002,64.2
0.20700000000000002,64.2
0.20800000000000002,64.2
0.209,64.0
0.21,64.2
0.211,64.0
0.212,64.0
0.213,64.2
0.214,64.2
0.215,64.2
0.216,64.2
0.217,64.0
0.218,64.0
0.219,64.0
0.22,64.2
0.221,64.2
0.222,64.2
0.223,63.8
0.224,64.0
0.225,64.0
0.226,64.2
0.227,64.2
0.228,64.0
0.229,64.2
0.23,64.2
0.231,64.0
0.232,64.0
0.233,64.0
0.234,64.2
0.23500000000000001,64.2
0.23600000000000002,64.2
0.23700000000000002,64.2
0.23800000000000002,64.0
0.23900000000000002,64.0
0.24,64.2
0.241,64.0
0.242,64.2
0.243,64.2
0.244,64.2
0.245,63.8
0.246,63.8
0.247,64.2
0.248,64.0
0.249,64.0
0.25,64.2
0.251,64.0
0.252,64.0
0.253,64.2
0.254,64.2
0.255,64.0
0.256,64.2
0.257,64.0
0.258,63.8
0.259,64.0
0.26,64.0
0.261,64.2
0.262,64.0
0.263,64.2
0.264,64.2
0.265,63.8
0.266,64.2
0.267,64.2
0.268,64.0
0.269,64.0
0.27,64.2
0.271,64.0
0.272,64.0
0.273,63.8
0.274,64.0
0.275,63.8
0.276,64.2
0.277,64.0
0.278,64.0
0.279,64.0
0.28,64.0
0.281,63.8
0.28200000000000003,63.8
0.28300000000000003,64.2
0.28400000000000003,64.0
0.28500000000000003,64.0
0.28600000000000003,64.0
0.28700000000000003,63.8
0.28800000000000003,63.6
0.289,64.0
0.29,64.0
0.291,63.6
0.292,64.0
0.293,63.8
0.294,64.0
0.295,63.8
0.296,63.8
0.297,63.6
0.298,63.8
0.299,63.8
0.3,64.0
0.301,64.0
0.302,64.0
0.303,64.0
0.304,63.8
0.305,64.2
0.306,64.0
0.307,63.8
0.308,63.8
0.309,64.0
0.31,63.8
0.311,64.0
0.312,64.0
0.313,64.2
0.314,64.0
0.315,64.0
0.316,63.6
0.317,63.8
0.318,63.8
0.319,64.0
0.32,64.0
0.321,63.8
0.322,63.8
0.323,63.8
0.324,63.6
0.325,64.0
0.326,63.6
0.327,63.8
0.328,64.0
0.329,63.8
0.33,63.8
0.331,64.0
0.332,63.8
0.333,63.8
0.334,64.0
0.335,64.0
0.336,64.0
0.337,64.0
0.338,63.8
0.339,63.8
0.34,63.8
0.341,64.0
0.342,63.8
0.343,63.8
0.34400000000000003,63.6
0.34500000000000003,63.6
0.34600000000000003,64.0
0.34700000000000003,63.8
0.34800000000000003,63.8
0.34900000000000003,63.8
0.35000000000000003,63.8
0.35100000000000003,63.8
0.352,63.8
0.353,64.0
0.354,64.0
0.355,63.8
0.356,63.8
0.357,63.6
0.358,63.8
0.359,64.0
0.36,64.0
0.361,63.8
0.362,63.8
0.363,63.8
0.364,63.6
0.365,63.8
0.366,64.0
0.367,63.6
0.368,63.8
0.369,63.8
0.37,63.8
0.371,63.8
0.372,63.6
0.373,63.6
0.374,63.6
0.375,63.8
0.376,63.8
0.377,63.8
0.378,63.8
0.379,63.8
0.38,63.6
0.381,63.8
0.382,63.8
0.383,63.8
0.384,63.8
0.385,63.8
0.386,63.8
0.387,63.6
0.388,64.0
0.389,63.8
0.39,63.6
0.391,63.6
0.392,63.8
0.393,63.8
0.394,63.6
0.395,63.6
0.396,63.6
0.397,63.6
0.398,63.8
0.399,63.8
0.4,63.8
0.401,64.0
0.402,63.8
0.403,63.8
0.404,63.8
0.405,63.8
0.406,63.8
0.40700000000000003,63.6
0.40800000000000003,63.8
0.40900000000000003,63.8
0.41000000000000003,63.8
0.41100000000000003,63.8
0.41200000000000003,63.8
0.41300000000000003,64.0
0.41400000000000003,63.8
0.41500000000000004,63.8
0.41600000000000004,63.6
0.417,63.6
0.418,63.8
0.419,63.8
0.42,63.8
0.421,63.8
0.422,63.8
0.423,63.8
0.424,63.8
0.425,63.6
0.426,63.8
0.427,63.8
0.428,63.8
0.429,63.8
0.43,63.6
0.431,64.0
0.432,64.0
0.433,64.0
0.434,63.8
0.435,63.8
0.436,63.8
0.437,63.6
0.438,63.8
0.439,63.8
0.44,64.0
0.441,64.0
0.442,64.0
0.443,63.8
0.444,63.8
0.445,63.8
0.446,63.8
0.447,63.8
0.448,64.0
0.449,63.8
0.45,63.6
0.451,63.8
0.452,64.0
0.453,63.8
0.454,63.8
0.455,64.0
0.456,63.6
0.457,63.6
0.458,63.8
0.459,64.0
0.46,63.8
0.461,63.8
0.462,64.0
0.463,63.6
0.464,63.8
0.465,63.8
0.466,63.8
0.467,63.8
0.468,63.8
0.46900000000000003,64.0
0.47000000000000003,64.0
0.47100000000000003,63.6
0.47200000000000003,64.0
0.47300000000000003,63.8
0.47400000000000003,63.8
0.47500000000000003,63.8
0.47600000000000003,64.0
0.47700000000000004,63.8
0.47800000000000004,63.8
0.47900000000000004,64.0
0.48,64.0
0.481,64.0
0.482,64.0
0.483,64.2
0.484,64.0
0.485,63.6
0.486,63.8
0.487,64.0
0.488,64.0
0.489,63.8
0.49,63.8
0.491,63.8
0.492,63.8
0.493,64.2
0.494,63.8
0.495,63.8
0.496,63.8
0.497,63.6
0.498,64.0
0.499,63.8
0.5,64.0
0.501,63.8
0.502,63.8
0.503,63.8
0.504,63.8
0.505,63.8
0.506,64.0
0.507,64.0
0.508,63.8
0.509,63.8
0.51,63.8
0.511,64.0
0.512,64.0
0.513,64.0
0.514,63.8
0.515,63.8
0.516,63.8
0.517,64.0
0.518,64.0
0.519,64.0
0.52,63.8
0.521,63.6
0.522,63.8
0.523,64.0
0.524,63.8
0.525,63.8
0.526,64.0
0.527,63.8
0.528,63.8
0.529,63.8
0.53,64.0
0.531,64.0
0.532,64.0
0.533,64.0
0.534,64.0
0.535,63.8
0.536,63.8
0.537,64.0
0.538,64.0
0.539,64.0
0.54,64.0
0.541,64.0
0.542,63.8
0.543,63.8
0.544,64.0
0.545,64.0
0.546,64.0
0.547,64.2
0.548,64.0
0.549,63.8
0.55,64.0
0.551,64.0
0.552,64.0
0.553,64.2
0.554,64.2
0.555,63.8
0.556,63.8
0.557,63.8
0.558,64.0
0.559,64.0
0.56,64.2
0.561,64.2
0.562,64.0
0.5630000000000001,64.0
0.5640000000000001,64.2
0.5650000000000001,64.0
0.5660000000000001,64.2
0.5670000000000001,64.2
0.5680000000000001,64.2
0.5690000000000001,64.0
0.5700000000000001,64.0
0.5710000000000001,63.8
0.5720000000000001,64.0
0.5730000000000001,64.2
0.5740000000000001,64.0
0.5750000000000001,64.2
0.5760000000000001,64.2
0.577,64.2
0.578,64.0
0.579,64.0
0.58,64.2
0.581,64.2
0.582,64.2
0.583,63.8
0.584,64.0
0.585,64.0
0.586,64.2
0.587,64.2
0.588,64.0
0.589,64.0
0.59,64.2
0.591,64.2
0.592,64.2
0.593,64.0
0.594,63.8
0.595,64.0
0.596,64.2
0.597,64.2
0.598,64.2
0.599,64.2
0.6,64.2
0.601,64.2
0.602,64.2
0.603,64.2
0.604,64.2
0.605,64.0
0.606,64.2
0.607,64.0
0.608,64.0
0.609,64.0
0.61,64.2
0.611,64.2
0.612,64.2
0.613,64.0
0.614,64.0
0.615,64.2
0.616,64.2
0.617,64.2
0.618,64.2
0.619,64.0
0.62,64.2
0.621,64.0
0.622,64.2
0.623,64.0
0.624,64.0
0.625,64.2
0.626,64.2
0.627,64.2
0.628,64.2
0.629,64.2
0.63,64.4
0.631,64.2
0.632,64.4
0.633,64.2
0.634,64.2
0.635,64.0
0.636,64.2
0.637,64.0
0.638,64.2
0.639,64.2
0.64,64.2
0.641,64.2
0.642,64.2
0.643,64.4
0.644,64.4
0.645,64.2
0.646,64.4
0.647,64.0
0.648,64.0
0.649,64.4
0.65,64.4
0.651,64.2
0.652,64.4
0.653,64.2
0.654,64.2
0.655,64.4
0.656,64.2
0.657,64.2
0.658,64.2
0.659,64.4
0.66,64.4
0.661,64.2
0.662,64.4
0.663,64.2
0.664,64.4
0.665,64.4
0.666,64.4
0.667,64.4
0.668,64.4
0.669,64.2
0.67,64.2
0.671,64.4
0.672,64.6
0.673,64.2
0.674,64.2
0.675,64.4
0.676,64.4
0.677,64.2
0.678,64.4
0.679,64.4
0.68,64.4
0.681,64.4
0.682,64.4
0.683,64.2
0.684,64.4
0.685,64.4
0.686,64.4
0.687,64.2
0.6880000000000001,64.4
0.6890000000000001,64.4
0.6900000000000001,64.4
0.6910000000000001,64.4
0.6920000000000001,64.4
0.6930000000000001,64.4
0.6940000000000001,64.4
0.6950000000000001,64.4
0.6960000000000001,64.6
0.6970000000000001,64.6
0.6980000000000001,64.6
0.6990000000000001,64.4
0.7000000000000001,64.4
0.7010000000000001,64.4
0.7020000000000001,64.4
0.7030000000000001,64.6
0.704,64.4
0.705,64.4
0.706,64.4
0.707,64.6
0.708,64.4
0.709,64.4
0.71,64.6
0.711,64.6
0.712,64.4
0.713,64.4
0.714,64.8
0.715,64.6
0.716,64.6
0.717,64.8
0.718,64.6
0.719,64.4
0.72,64.6
0.721,64.6
0.722,64.6
0.723,64.6
0.724,64.6
0.725,64.6
0.726,64.6
0.727,64.6
0.728,64.6
0.729,64.6
0.73,64.6
0.731,64.6
0.732,64.6
0.733,64.8
0.734,64.6
0.735,64.8
0.736,64.8
0.737,64.8
0.738,64.8
0.739,64.8
0.74,64.6
0.741,64.6
0.742,64.8
0.743,64.6
0.744,64.6
0.745,64.8
0.746,64.6
0.747,64.6
0.748,64.8
0.749,64.8
0.75,64.6
0.751,64.8
0.752,64.8
0.753,64.8
0.754,64.8
0.755,64.8
0.756,64.8
0.757,64.6
0.758,64.8
0.759,65.0
0.76,64.8
0.761,64.8
0.762,64.8
0.763,64.8
0.764,64.8
0.765,64.8
0.766,65.0
0.767,64.8
0.768,64.8
0.769,64.8
0.77,65.0
0.771,64.8
0.772,65.0
0.773,65.0
0.774,65.0
0.775,64.8
0.776,64.8
0.777,64.8
0.778,64.8
0.779,65.0
0.78,64.8
0.781,65.0
0.782,64.8
0.783,64.8
0.784,65.0
0.785,65.0
0.786,65.0
0.787,64.8
0.788,64.8
0.789,65.0
0.79,65.0
0.791,64.8
0.792,65.0
0.793,64.8
0.794,64.8
0.795,65.0
0.796,65.0
0.797,65.0
0.798,64.8
0.799,65.2
0.8,65.0
0.801,65.0
0.802,65.0
0.803,65.0
0.804,65.0
0.805,65.0
0.806,65.0
0.807,64.8
0.808,65.2
0.809,65.0
0.81,65.2
0.811,65.0
0.812,65.0
0.8130000000000001,65.0
0.8140000000000001,65.2
0.8150000000000001,65.0
0.8160000000000001,65.2
0.8170000000000001,65.0
0.8180000000000001,65.0
0.8190000000000001,65.2
0.8200000000000001,65.2
0.8210000000000001,65.2
0.8220000000000001,65.0
0.8230000000000001,65.2
0.8240000000000001,65.0
0.8250000000000001,65.2
0.8260000000000001,65.2
0.8270000000000001,65.2
0.8280000000000001,65.2
0.8290000000000001,65.2
0.8300000000000001,65.2
0.8310000000000001,65.2
0.8320000000000001,65.2
0.833,65.2
0.834,65.4
0.835,65.2
0.836,65.2
0.837,65.4
0.838,65.2
0.839,65.0
0.84,65.2
0.841,65.4
0.842,65.2
0.843,65.0
0.844,65.4
0.845,65.2
0.846,65.4
0.847,65.4
0.848,65.4
0.849,65.4
0.85,65.4
0.851,65.4
0.852,65.4
0.853,65.2
0.854,65.2
0.855,65.4
0.856,65.4
0.857,65.6
0.858,65.4
0.859,65.4
0.86,65.4
0.861,65.4
0.862,65.6
0.863,65.4
0.864,65.8
0.865,65.4
0.866,65.6
0.867,65.2
0.868,65.6
0.869,65.4
0.87,65.4
0.871,65.6
0.872,65.6
0.873,65.4
0.874,65.6
0.875,65.4
0.876,65.8
0.877,65.8
0.878,65.6
0.879,65.6
0.88,65.6
0.881,65.4
0.882,65.6
0.883,65.8
0.884,65.8
0.885,65.6
0.886,65.6
0.887,65.8
0.888,65.8
0.889,65.6
0.89,65.6
0.891,65.6
0.892,65.6
0.893,65.6
0.894,65.8
0.895,65.8
0.896,65.8
0.897,65.6
0.898,65.8
0.899,65.8
0.9,65.8
0.901,65.8
0.902,65.6
0.903,65.8
0.904,65.8
0.905,65.8
0.906,65.8
0.907,65.8
0.908,66.0
0.909,65.8
0.91,65.6
0.911,65.8
0.912,65.8
0.913,65.8
0.914,65.8
0.915,66.0
0.916,65.8
0.917,65.8
0.918,66.0
0.919,66.0
0.92,65.8
0.921,65.8
0.922,66.0
0.923,66.0
0.924,66.0
0.925,65.8
0.926,66.0
0.927,66.0
0.928,66.0
0.929,66.0
0.93,66.0
0.931,66.0
0.932,66.0
0.933,66.0
0.934,66.0
0.935,66.0
0.936,66.0
0.937,66.2
0.9380000000000001,66.0
0.9390000000000001,66.0
0.9400000000000001,66.0
0.9410000000000001,66.0
0.9420000000000001,66.0
0.9430000000000001,66.0
0.9440000000000001,66.0
0.9450000000000001,66.0
0.9460000000000001,66.2
0.9470000000000001,66.2
0.9480000000000001,66.0
0.9490000000000001,66.2
0.9500000000000001,66.2
0.9510000000000001,66.2
0.9520000000000001,66.2
0.9530000000000001,66.2
0.9540000000000001,66.2
0.9550000000000001,66.0
0.9560000000000001,66.4
0.9570000000000001,66.4
0.9580000000000001,66.2
0.9590000000000001,66.4
0.96,66.4
0.961,66.2
0.962,66.2
0.963,66.4
0.964,66.4
0.965,66.4
0.966,66.2
0.967,66.4
0.968,66.2
0.969,66.4
0.97,66.2
0.971,66.4
0.972,66.4
0.973,66.4
0.974,66.4
0.975,66.4
0.976,66.4
0.977,66.4
0.978,66.4
0.979,66.4
0.98,66.4
0.981,66.4
0.982,66.4
0.983,66.4
0.984,66.4
0.985,66.6
0.986,66.6
0.987,66.6
0.988,66.6
0.989,66.6
0.99,66.6
0.991,66.4
0.992,66.4
0.993,66.6
0.994,66.6
0.995,66.6
0.996,66.8
0.997,66.6
0.998,66.6
0.999,66.6
1.0,66.6
1.0010000000000001,66.6
1.002,66.8
1.0030000000000001,67.0
1.004,66.6
1.0050000000000001,66.8
1.006,66.8
1.0070000000000001,66.8
1.008,66.8
1.0090000000000001,66.6
1.01,66.8
1.0110000000000001,66.6
1.012,66.8
1.0130000000000001,66.8
1.014,66.6
1.0150000000000001,66.6
1.016,66.8
1.0170000000000001,66.8
1.018,67.0
1.0190000000000001,66.8
1.02,66.8
1.0210000000000001,66.8
1.022,66.8
1.0230000000000001,67.2
1.024,66.8
1.025,67.0
1.026,67.0
1.027,67.0
1.028,67.0
1.029,66.8
1.03,67.0
1.031,66.8
1.032,67.2
1.033,67.0
1.034,67.0
1.035,67.2
1.036,67.0
1.037,66.8
1.038,67.2
1.039,67.0
1.04,67.2
1.041,67.0
1.042,67.2
1.043,67.2
1.044,67.2
1.045,67.2
1.046,67.0
1.047,67.2
1.048,67.2
1.049,67.2
1.05,67.2
1.051,67.2
1.052,67.2
1.053,67.2
1.054,67.0
1.055,67.4
1.056,67.4
1.057,67.2
1.058,67.4
1.059,67.4
1.06,67.2
1.061,67.2
1.062,67.4
1.063,67.2
1.064,67.4
1.065,67.2
1.066,67.4
1.067,67.2
1.068,67.4
1.069,67.4
1.07,67.4
1.071,67.4
1.072,67.4
1.073,67.2
1.074,67.4
1.075,67.4
1.076,67.6
1.077,67.4
1.078,67.4
1.079,67.6
1.08,67.6
1.081,67.6
1.082,67.6
1.083,67.4
1.084,67.6
1.085,67.4
1.086,67.6
1.087,67.6
1.088,67.6
1.089,67.6
1.09,67.6
1.091,67.4
1.092,67.6
1.093,67.6
1.094,67.6
1.095,67.6
1.096,67.6
1.097,67.8
1.098,67.6
1.099,67.8
1.1,67.8
1.101,67.6
1.102,67.8
1.103,67.6
1.104,67.8
1.105,67.8
1.106,67.8
1.107,67.8
1.108,67.8
1.109,67.6
1.11,68.0
1.111,68.0
1.112,67.8
1.113,67.8
1.114,67.8
1.115,67.8
1.116,68.0
1.117,67.8
1.118,68.0
1.119,67.8
1.12,68.0
1.121,67.8
1.122,68.0
1.123,67.8
1.124,68.0
1.125,68.0
1.1260000000000001,68.0
1.127,68.2
1.1280000000000001,68.0
1.129,68.2
1.1300000000000001,67.8
1.131,68.0
1.1320000000000001,68.0
1.133,68.0
1.1340000000000001,68.0
1.135,68.0
1.1360000000000001,67.8
1.137,68.2
1.1380000000000001,68.2
1.139,68.0
1.1400000000000001,68.0
1.141,68.2
1.1420000000000001,68.0
1.143,68.4
1.1440000000000001,68.2
1.145,68.2
1.1460000000000001,68.2
1.147,68.2
1.1480000000000001,68.0
1.149,68.0
1.1500000000000001,68.2
1.151,68.2
1.1520000000000001,68.4
1.153,68.0
1.154,68.2
1.155,68.4
1.156,68.2
1.157,68.2
1.158,68.4
1.159,68.4
1.16,68.4
1.161,68.4
1.162,68.4
1.163,68.2
1.164,68.2
1.165,68.4
1.166,68.2
1.167,68.4
1.168,68.4
1.169,68.4
1.17,68.4
1.171,68.6
1.172,68.4
1.173,68.4
1.174,68.4
1.175,68.4
1.176,68.4
1.177,68.4
1.178,68.4
1.179,68.2
1.18,68.6
1.181,68.6
1.182,68.6
1.183,68.6
1.184,68.6
1.185,68.6
1.186,68.6
1.187,68.4
1.188,68.6
1.189,68.4
1.19,68.4
1.191,68.6
1.192,68.8
1.193,68.8
1.194,68.6
1.195,68.6
1.196,68.8
1.197,68.8
1.198,68.8
1.199,68.8
1.2,68.6
1.201,68.8
1.202,68.8
1.203,68.6
1.204,68.8
1.205,68.8
1.206,69.0
1.207,68.8
1.208,68.8
1.209,68.8
1.21,68.8
1.211,69.0
1.212,68.8
1.213,68.8
1.214,68.8
1.215,69.2
1.216,68.8
1.217,69.0
1.218,69.0
1.219,69.0
1.22,69.0
1.221,69.0
1.222,68.8
1.223,69.0
1.224,69.0
1.225,69.0
1.226,69.0
1.227,69.0
1.228,69.2
1.229,69.0
1.23,69.0
1.231,69.2
1.232,69.0
1.233,69.2
1.234,69.2
1.235,69.0
1.236,69.2
1.237,69.2
1.238,69.2
1.239,69.2
1.24,69.2
1.241,69.2
1.242,69.2
1.243,69.2
1.244,69.2
1.245,69.0
1.246,69.2
1.247,69.4
1.248,69.0
1.249,69.2
1.25,69.2
1.2510000000000001,69.6
1.252,69.4
1.2530000000000001,69.4
1.254,69.6
1.2550000000000001,69.4
1.256,69.2
1.2570000000000001,69.4
1.258,69.2
1.2590000000000001,69.4
1.26,69.6
1.2610000000000001,69.6
1.262,69.6
1.2630000000000001,69.4
1.264,69.2
1.2650000000000001,69.6
1.266,69.4
1.2670000000000001,69.4
1.268,69.6
1.2690000000000001,69.2
1.27,69.4
1.2710000000000001,69.6
1.272,69.6
1.2730000000000001,69.6
1.274,69.4
1.2750000000000001,69.8
1.276,69.6
1.2770000000000001,69.6
1.278,69.6
1.2790000000000001,69.8
1.28,69.6
1.281,69.4
1.282,69.8
1.283,69.8
1.284,69.6
1.285,69.8
1.286,69.6
1.287,69.8
1.288,69.6
1.289,69.6
1.29,69.6
1.291,69.8
1.292,69.8
1.293,69.6
1.294,70.0
1.295,70.0
1.296,69.8
1.297,69.8
1.298,69.8
1.299,70.0
1.3,70.0
1.301,69.8
1.302,69.8
1.303,70.0
1.304,70.0
1.305,69.8
1.306,69.6
1.307,69.8
1.308,69.8
1.309,70.2
1.31,70.0
1.311,70.0
1.312,69.8
1.313,70.0
1.314,70.0
1.315,70.0
1.316,70.0
1.317,70.0
1.318,70.0
1.319,70.0
1.32,70.0
1.321,69.8
1.322,70.0
1.323,70.0
1.324,70.0
1.325,70.4
1.326,70.0
1.327,70.4
1.328,70.0
1.329,70.2
1.33,70.2
1.331,70.4
1.332,70.2
1.333,70.2
1.334,70.2
1.335,70.0
1.336,70.4
1.337,70.2
1.338,70.2
1.339,70.4
1.34,70.2
1.341,70.2
1.342,70.4
1.343,70.4
1.344,70.2
1.345,70.4
1.346,70.4
1.347,70.2
1.348,70.4
1.349,70.2
1.35,70.4
1.351,70.2
1.352,70.4
1.353,70.4
1.354,70.2
1.355,70.4
1.356,70.4
1.357,70.2
1.358,70.6
1.359,70.6
1.36,70.4
1.361,70.4
1.362,70.2
1.363,70.6
1.364,70.6
1.365,70.4
1.366,70.6
1.367,70.8
1.368,70.8
1.369,70.6
1.37,70.4
1.371,70.6
1.372,70.8
1.373,70.6
1.374,70.6
1.375,70.4
1.3760000000000001,70.6
1.377,70.4
1.3780000000000001,70.6
1.379,70.6
1.3800000000000001,70.6
1.381,70.6
1.3820000000000001,70.6
1.383,70.8
1.3840000000000001,70.8
1.385,70.6
1.3860000000000001,70.4
1.387,70.6
1.3880000000000001,70.4
1.389,70.6
1.3900000000000001,70.8
1.391,70.8
1.3920000000000001,70.6
1.393,70.8
1.3940000000000001,70.8
1.395,70.8
1.3960000000000001,70.8
1.397,70.8
1.3980000000000001,71.0
1.399,70.6
1.4000000000000001,70.6
1.401,70.6
1.4020000000000001,70.8
1.403,71.0
1.4040000000000001,71.0
1.405,70.8
1.4060000000000001,70.8
1.407,70.8
1.408,71.0
1.409,71.0
1.41,70.8
1.411,70.8
1.412,71.0
1.413,70.8
1.414,71.0
1.415,71.0
1.416,70.8
1.417,71.0
1.418,71.0
1.419,70.8
1.42,70.8
1.421,71.0
1.422,71.0
1.423,71.0
1.424,71.2
1.425,71.2
1.426,71.0
1.427,70.8
1.428,71.0
1.429,71.2
1.43,71.0
1.431,71.2
1.432,71.0
1.433,71.0
1.434,71.0
1.435,71.2
1.436,71.2
1.437,71.0
1.438,71.2
1.439,71.0
1.44,71.2
1.441,71.2
1.442,71.2
1.443,71.2
1.444,71.2
1.445,71.2
1.446,71.2
1.447,71.2
1.448,71.0
1.449,71.2
1.45,71.0
1.451,71.2
1.452,71.4
1.453,71.2
1.454,71.4
1.455,71.2
1.456,71.4
1.457,71.4
1.458,71.4
1.459,71.2
1.46,71.4
1.461,71.2
1.462,71.4
1.463,71.2
1.464,71.4
1.465,71.4
1.466,71.2
1.467,71.2
1.468,71.2
1.469,71.4
1.47,71.4
1.471,71.4
1.472,71.6
1.473,71.6
1.474,71.2
1.475,71.4
1.476,71.2
1.477,71.6
1.478,71.4
1.479,71.4
1.48,71.4
1.481,71.6
1.482,71.6
1.483,71.6
1.484,71.4
1.485,71.4
1.486,71.4
1.487,71.4
1.488,71.4
1.489,71.6
1.49,71.6
1.491,71.4
1.492,71.6
1.493,71.6
1.494,71.8
1.495,71.6
1.496,71.6
1.497,71.6
1.498,71.4
1.499,71.6
1.5,71.6
1.5010000000000001,71.6
1.502,71.6
1.5030000000000001,71.8
1.504,71.4
1.5050000000000001,71.8
1.506,71.4
1.5070000000000001,71.8
1.508,71.8
1.5090000000000001,71.6
1.51,71.6
1.5110000000000001,71.6
1.512,71.8
1.5130000000000001,72.0
1.514,71.6
1.5150000000000001,71.8
1.516,71.6
1.5170000000000001,71.8
1.518,71.8
1.5190000000000001,71.6
1.52,71.8
1.5210000000000001,71.8
1.522,72.0
1.5230000000000001,71.8
1.524,71.8
1.5250000000000001,71.6
1.526,71.8
1.5270000000000001,72.0
1.528,71.8
1.5290000000000001,72.0
1.53,72.0
1.5310000000000001,72.0
1.532,71.8
1.5330000000000001,71.8
1.534,72.0
1.5350000000000001,71.8
1.536,71.8
1.537,72.0
1.538,71.8
1.539,71.8
1.54,72.0
1.541,72.0
1.542,71.8
1.543,72.0
1.544,72.0
1.545,71.8
1.546,71.8
1.547,71.6
1.548,72.0
1.549,71.8
1.55,72.0
1.551,72.0
1.552,72.0
1.553,72.0
1.554,72.0
1.555,71.8
1.556,72.0
1.557,72.0
1.558,72.0
1.559,72.0
1.56,71.8
1.561,72.0
1.562,72.0
1.563,72.0
1.564,72.0
1.565,72.0
1.566,72.0
1.567,72.2
1.568,72.0
1.569,72.0
1.57,72.0
1.571,72.2
1.572,72.2
1.573,72.2
1.574,71.8
1.575,72.0
1.576,72.2
1.577,72.2
1.578,72.0
1.579,72.0
1.58,72.2
1.581,72.2
1.582,72.2
1.583,72.0
1.584,72.0
1.585,72.0
1.586,72.2
1.587,72.2
1.588,72.2
1.589,72.2
1.59,72.2
1.591,72.2
1.592,72.2
1.593,72.4
1.594,72.4
1.595,72.2
1.596,72.4
1.597,72.4
1.598,72.2
1.599,72.2
1.6,72.2
1.601,72.2
1.602,72.4
1.603,72.2
1.604,72.2
1.605,72.2
1.606,72.4
1.607,72.2
1.608,72.2
1.609,72.2
1.61,72.2
1.611,72.2
1.612,72.2
1.613,72.2
1.614,72.2
1.615,72.4
1.616,72.2
1.617,72.2
1.618,72.2
1.619,72.4
1.62,72.4
1.621,72.2
1.622,72.4
1.623,72.4
1.624,72.4
1.625,72.2
1.6260000000000001,72.4
1.627,72.4
1.6280000000000001,72.6
1.629,72.4
1.6300000000000001,72.4
1.631,72.2
1.6320000000000001,72.2
1.633,72.6
1.6340000000000001,72.6
1.635,72.2
1.6360000000000001,72.4
1.637,72.4
1.6380000000000001,72.6
1.639,72.4
1.6400000000000001,72.8
1.641,72.6
1.6420000000000001,72.4
1.643,72.4
1.6440000000000001,72.4
1.645,72.4
1.6460000000000001,72.4
1.647,72.6
1.6480000000000001,72.4
1.649,72.6
1.6500000000000001,72.6
1.651,72.4
1.6520000000000001,72.6
1.653,72.6
1.6540000000000001,72.4
1.655,72.6
1.6560000000000001,72.6
1.657,72.6
1.6580000000000001,72.6
1.659,72.4
1.6600000000000001,72.6
1.661,72.4
1.6620000000000001,72.4
1.663,72.4
1.6640000000000001,72.6
1.665,72.8
1.666,72.6
1.667,72.6
1.668,72.8
1.669,72.6
1.67,72.6
1.671,72.6
1.672,72.6
1.673,72.6
1.674,72.4
1.675,72.8
1.676,72.6
1.677,72.4
1.678,72.4
1.679,72.6
1.68,72.8
1.681,72.4
1.682,72.6
1.683,72.4
1.684,72.6
1.685,72.6
1.686,72.8
1.687,72.6
1.688,72.8
1.689,72.6
1.69,72.8
1.691,72.8
1.692,72.8
1.693,72.6
1.694,72.4
1.695,72.8
1.696,72.6
1.697,72.6
1.698,72.8
1.699,72.8
1.7,72.8
1.701,72.8
1.702,72.6
1.703,72.8
1.704,72.6
1.705,72.8
1.706,72.8
1.707,72.8
1.708,72.6
1.709,72.8
1.71,72.8
1.711,72.8
1.712,72.6
1.713,72.6
1.714,72.8
1.715,72.8
1.716,72.6
1.717,72.6
1.718,72.8
1.719,73.0
1.72,72.8
1.721,72.8
1.722,72.8
1.723,72.8
1.724,72.6
1.725,73.0
1.726,73.0
1.727,72.8
1.728,72.8
1.729,73.0
1.73,72.8
1.731,72.6
1.732,72.8
1.733,72.8
1.734,72.8
1.735,73.0
1.736,72.6
1.737,72.6
1.738,73.0
1.739,72.8
1.74,72.8
1.741,72.8
1.742,73.0
1.743,72.6
1.744,72.8
1.745,72.6
1.746,72.8
1.747,72.8
1.748,73.0
1.749,73.0
1.75,72.8
1.7510000000000001,73.0
1.752,72.8
1.7530000000000001,73.0
1.754,73.0
1.7550000000000001,73.0
1.756,72.8
1.7570000000000001,73.0
1.758,72.6
1.7590000000000001,72.8
1.76,72.8
1.7610000000000001,72.8
1.762,72.8
1.7630000000000001,72.8
1.764,72.8
1.7650000000000001,73.2
1.766,72.8
1.7670000000000001,73.0
1.768,73.0
1.7690000000000001,73.0
1.77,73.0
1.7710000000000001,73.0
1.772,72.8
1.7730000000000001,72.6
1.774,73.0
1.7750000000000001,73.0
1.776,72.8
1.7770000000000001,72.8
1.778,73.0
1.7790000000000001,73.0
1.78,73.0
1.7810000000000001,72.8
1.782,73.0
1.7830000000000001,72.8
1.784,73.0
1.7850000000000001,72.8
1.786,73.0
1.7870000000000001,73.0
1.788,73.0
1.7890000000000001,73.0
1.79,72.8
1.7910000000000001,73.0
1.792,73.2
1.793,72.8
1.794,73.0
1.795,73.0
1.796,73.0
1.797,73.0
1.798,73.0
1.799,73.0
1.8,73.0
1.801,72.8
1.802,72.8
1.803,72.8
1.804,73.0
1.805,73.0
1.806,73.0
1.807,73.0
1.808,73.0
1.809,73.0
1.81,73.0
1.811,73.0
1.812,72.8
1.813,73.0
1.814,73.0
1.815,73.0
1.816,72.8
1.817,73.0
1.818,73.0
1.819,73.0
1.82,73.0
1.821,73.2
1.822,73.0
1.823,73.0
1.824,73.0
1.825,73.0
1.826,73.0
1.827,73.0
1.828,73.2
1.829,72.8
1.83,73.0
1.831,73.2
1.832,73.2
1.833,72.8
1.834,73.0
1.835,73.0
1.836,73.0
1.837,73.2
1.838,73.2
1.839,73.0
1.84,73.0
1.841,73.0
1.842,73.0
1.843,73.0
1.844,73.2
1.845,73.0
1.846,73.0
1.847,73.2
1.848,73.0
1.849,73.0
1.85,73.0
1.851,73.0
1.852,73.2
1.853,73.2
1.854,73.2
1.855,73.2
1.856,73.0
1.857,73.0
1.858,73.0
1.859,73.0
1.86,73.2
1.861,73.0
1.862,73.2
1.863,73.0
1.864,73.0
1.865,73.2
1.866,73.2
1.867,73.2
1.868,73.2
1.869,73.0
1.87,73.0
1.871,73.0
1.872,73.0
1.873,73.0
1.874,73.0
1.875,72.8
1.8760000000000001,73.0
1.877,73.2
1.8780000000000001,73.0
1.879,73.0
1.8800000000000001,72.8
1.881,73.2
1.8820000000000001,72.8
1.883,73.0
1.8840000000000001,73.2
1.885,73.0
1.8860000000000001,73.0
1.887,73.0
1.8880000000000001,73.0
1.889,73.0
1.8900000000000001,73.2
1.891,73.2
1.8920000000000001,73.0
1.893,73.0
1.8940000000000001,73.0
1.895,73.0
1.8960000000000001,73.2
1.897,73.2
1.8980000000000001,73.0
1.899,73.0
1.9000000000000001,72.8
1.901,73.0
1.9020000000000001,73.0
1.903,73.0
1.9040000000000001,72.8
1.905,73.0
1.9060000000000001,72.8
1.907,72.8
1.9080000000000001,73.0
1.909,73.2
1.9100000000000001,73.0
1.911,73.0
1.9120000000000001,73.0
1.913,73.0
1.9140000000000001,72.8
1.915,72.8
1.9160000000000001,73.0
1.917,73.0
1.9180000000000001,73.0
1.919,73.2
1.92,73.2
1.921,73.0
1.922,72.8
1.923,73.0
1.924,73.0
1.925,73.0
1.926,73.2
1.927,73.0
1.928,72.8
1.929,73.0
1.93,73.0
1.931,73.0
1.932,73.0
1.933,73.0
1.934,72.8
1.935,73.0
1.936,73.0
1.937,73.0
1.938,72.8
1.939,73.0
1.94,73.0
1.941,72.8
1.942,72.8
1.943,73.0
1.944,73.0
1.945,72.8
1.946,73.0
1.947,73.0
1.948,73.0
1.949,73.0
1.95,73.2
1.951,73.0
1.952,73.0
1.953,73.0
1.954,73.0
1.955,73.0
1.956,72.8
1.957,73.0
1.958,73.0
1.959,73.0
1.96,72.8
1.961,73.2
1.962,73.0
1.963,73.0
1.964,73.0
1.965,73.2
1.966,73.0
1.967,73.0
1.968,72.8
1.969,72.8
1.97,72.6
1.971,72.8
1.972,72.8
1.973,73.0
1.974,72.8
1.975,72.8
1.976,73.0
1.977,73.0
1.978,73.0
1.979,72.8
1.98,73.0
1.981,72.8
1.982,72.8
1.983,72.8
1.984,73.0
1.985,72.8
1.986,72.8
1.987,73.0
1.988,72.8
1.989,72.8
1.99,73.0
1.991,72.8
1.992,73.0
1.993,72.8
1.994,73.0
1.995,72.8
1.996,73.0
1.997,72.8
1.998,72.8
1.999,72.8
2.0,72.6
2.001,73.0
2.0020000000000002,73.0
2.003,73.0
2.004,72.8
2.005,72.8
2.0060000000000002,72.8
2.007,73.0
2.008,72.8
2.009,72.8
2.0100000000000002,72.8
2.011,72.8
2.012,72.8
2.013,72.8
2.0140000000000002,72.6
2.015,73.0
2.016,72.8
2.017,72.8
2.0180000000000002,72.8
2.019,72.8
2.02,72.6
2.021,72.6
2.0220000000000002,72.8
2.023,72.6
2.024,73.0
2.025,72.8
2.0260000000000002,72.8
2.027,72.6
2.028,72.8
2.029,73.0
2.0300000000000002,72.6
2.031,72.8
2.032,73.0
2.033,72.6
2.0340000000000003,72.8
2.035,72.8
2.036,72.8
2.037,72.6
2.0380000000000003,72.8
2.039,73.0
2.04,72.6
2.041,72.8
2.0420000000000003,72.6
2.043,73.0
2.044,72.8
2.045,72.8
2.0460000000000003,72.8
2.047,72.8
2.048,72.6
2.049,73.0
2.05,72.8
2.051,72.6
2.052,72.8
2.053,72.8
2.054,73.0
2.055,72.4
2.056,72.8
2.057,73.0
2.058,72.8
2.059,72.6
2.06,72.6
2.061,72.8
2.062,72.8
2.063,72.8
2.064,72.8
2.065,72.6
2.066,72.8
2.067,72.6
2.068,72.8
2.069,72.6
2.07,72.8
2.071,72.8
2.072,72.8
2.073,72.6
2.074,72.6
2.075,72.8
2.076,72.8
2.077,72.8
2.078,72.6
2.079,72.6
2.08,72.6
2.081,72.6
2.082,72.8
2.083,72.6
2.084,72.6
2.085,72.6
2.086,72.8
2.087,72.8
2.088,72.6
2.089,72.8
2.09,72.6
2.091,72.6
2.092,72.6
2.093,72.6
2.094,72.8
2.095,72.6
2.096,72.6
2.097,72.8
2.098,72.6
2.099,72.4
2.1,72.6
2.101,72.6
2.102,72.6
2.103,72.6
2.104,72.6
2.105,72.6
2.106,72.6
2.107,72.8
2.108,72.6
2.109,72.6
2.11,72.6
2.111,72.6
2.112,72.4
2.113,72.6
2.114,72.6
2.115,72.4
2.116,72.6
2.117,72.6
2.118,72.8
2.119,72.6
2.12,72.4
2.121,72.6
2.122,72.4
2.123,72.6
2.124,72.6
2.125,72.6
2.126,72.4
2.1270000000000002,72.4
2.128,72.6
2.129,72.4
2.13,72.6
2.1310000000000002,72.6
2.132,72.4
2.133,72.4
2.134,72.6
2.1350000000000002,72.6
2.136,72.4
2.137,72.6
2.138,72.6
2.1390000000000002,72.4
2.14,72.4
2.141,72.4
2.142,72.6
2.1430000000000002,72.6
2.144,72.6
2.145,72.6
2.146,72.4
2.1470000000000002,72.6
2.148,72.6
2.149,72.4
2.15,72.6
2.1510000000000002,72.6
2.152,72.6
2.153,72.4
2.154,72.4
2.1550000000000002,72.6
2.156,72.4
2.157,72.6
2.158,72.4
2.1590000000000003,72.6
2.16,72.4
2.161,72.6
2.162,72.6
2.1630000000000003,72.6
2.164,72.4
2.165,72.6
2.166,72.6
2.1670000000000003,72.4
2.168,72.2
2.169,72.2
2.17,72.6
2.1710000000000003,72.4
2.172,72.2
2.173,72.4
2.174,72.4
2.1750000000000003,72.4
2.176,72.4
2.177,72.2
2.178,72.4
2.179,72.2
2.18,72.2
2.181,72.4
2.182,72.4
2.183,72.6
2.184,72.4
2.185,72.6
2.186,72.4
2.187,72.4
2.188,72.6
2.189,72.2
2.19,72.4
2.191,72.4
2.192,72.2
2.193,72.2
2.194,72.4
2.195,72.4
2.196,72.4
2.197,72.2
2.198,72.0
2.199,72.2
2.2,72.4
2.201,72.4
2.202,72.4
2.203,72.2
2.204,72.4
2.205,72.2
2.206,72.4
2.207,72.2
2.208,72.2
2.209,72.4
2.21,72.2
2.211,72.4
2.212,72.2
2.213,72.4
2.214,72.2
2.215,72.4
2.216,72.4
2.217,72.4
2.218,72.2
2.219,72.2
2.22,72.2
2.221,72.0
2.222,72.2
2.223,72.2
2.224,72.2
2.225,72.0
2.226,72.0
2.227,72.2
2.228,72.2
2.229,72.2
2.23,72.2
2.231,72.0
2.232,72.2
2.233,72.2
2.234,72.2
2.235,72.2
2.236,72.2
2.237,72.2
2.238,72.0
2.239,72.2
2.24,72.2
2.241,72.2
2.242,72.2
2.243,72.2
2.244,72.0
2.245,72.0
2.246,72.2
2.247,72.2
2.248,72.2
2.249,72.2
2.25,72.2
2.251,72.0
2.2520000000000002,72.2
2.253,72.0
2.254,72.0
2.255,72.0
2.2560000000000002,72.2
2.257,72.2
2.258,72.2
2.259,72.2
2.2600000000000002,72.2
2.261,72.0
2.262,72.0
2.263,72.0
2.2640000000000002,72.2
2.265,72.0
2.266,72.0
2.267,71.8
2.2680000000000002,71.8
2.269,72.2
2.27,72.0
2.271,71.8
2.2720000000000002,72.0
2.273,72.0
2.274,72.2
2.275,72.0
2.2760000000000002,71.8
2.277,71.8
2.278,71.8
2.279,72.0
2.2800000000000002,72.2
2.281,72.0
2.282,72.0
2.283,72.0
2.2840000000000003,72.2
2.285,72.0
2.286,72.0
2.287,72.0
2.2880000000000003,71.8
2.289,72.2
2.29,72.0
2.291,72.0
2.2920000000000003,71.8
2.293,72.0
2.294,72.0
2.295,72.0
2.2960000000000003,71.8
2.297,71.8
2.298,71.8
2.299,72.0
2.3000000000000003,72.0
2.301,72.0
2.302,71.8
2.303,72.0
2.3040000000000003,71.6
2.305,72.0
2.306,71.8
2.307,71.8
2.308,71.8
2.309,71.8
2.31,72.0
2.311,71.8
2.312,72.0
2.313,72.0
2.314,72.0
2.315,72.0
2.316,72.0
2.317,72.0
2.318,71.8
2.319,72.0
2.32,71.8
2.321,72.0
2.322,72.0
2.323,72.0
2.324,71.8
2.325,71.4
2.326,72.0
2.327,71.6
2.328,71.6
2.329,71.8
2.33,71.8
2.331,71.8
2.332,71.8
2.333,72.0
2.334,71.6
2.335,71.8
2.336,72.0
2.337,71.8
2.338,71.4
2.339,71.8
2.34,71.6
2.341,71.4
2.342,71.8
2.343,72.0
2.344,71.6
2.345,72.0
2.346,71.8
2.347,71.6
2.348,72.0
2.349,71.8
2.35,72.0
2.351,71.6
2.352,71.4
2.353,72.0
2.354,71.8
2.355,71.6
2.356,71.6
2.357,71.6
2.358,71.6
2.359,71.6
2.36,71.6
2.361,71.8
2.362,71.6
2.363,71.6
2.364,71.6
2.365,71.6
2.366,71.8
2.367,71.4
2.368,71.8
2.369,71.8
2.37,71.4
2.371,71.4
2.372,72.0
2.373,71.6
2.374,71.6
2.375,71.6
2.376,71.6
2.3770000000000002,71.6
2.378,71.6
2.379,71.4
2.38,71.6
2.3810000000000002,71.6
2.382,71.4
2.383,71.6
2.384,71.6
2.3850000000000002,71.6
2.386,71.6
2.387,71.4
2.388,71.4
2.3890000000000002,71.6
2.39,71.6
2.391,71.4
2.392,71.6
2.3930000000000002,71.6
2.394,71.6
2.395,71.4
2.396,71.4
2.3970000000000002,71.4
2.398,71.6
2.399,71.6
2.4,71.4
2.4010000000000002,71.6
2.402,71.4
2.403,71.4
2.404,71.6
2.4050000000000002,71.4
2.406,71.4
2.407,71.4
2.408,71.2
2.4090000000000003,71.4
2.41,71.4
2.411,71.4
2.412,71.4
2.4130000000000003,71.4
2.414,71.4
2.415,71.2
2.416,71.4
2.4170000000000003,71.2
2.418,71.6
2.419,71.4
2.42,71.6
2.4210000000000003,71.4
2.422,71.4
2.423,71.2
2.424,71.0
2.4250000000000003,71.2
2.426,71.2
2.427,71.2
2.428,71.4
2.4290000000000003,71.2
2.43,71.2
2.431,71.4
2.432,71.2
2.433,71.2
2.434,71.4
2.435,71.4
2.436,71.0
2.437,71.2
2.438,71.2
2.439,71.4
2.44,71.2
2.441,71.2
2.442,71.2
2.443,71.4
2.444,71.4
2.445,71.4
2.446,71.2
2.447,71.4
2.448,71.2
2.449,71.2
2.45,71.2
2.451,71.0
2.452,71.2
2.453,71.2
2.454,71.2
2.455,71.0
2.456,71.2
2.457,71.2
2.458,71.4
2.459,71.0
2.46,71.2
2.461,71.2
2.462,71.0
2.463,71.2
2.464,71.0
2.465,71.0
2.466,71.0
2.467,71.2
2.468,71.0
2.469,71.0
2.47,71.0
2.471,71.2
2.472,71.0
2.473,71.0
2.474,71.0
2.475,70.8
2.476,70.8
2.477,70.8
2.478,71.2
2.479,71.2
2.48,71.0
2.481,71.2
2.482,71.0
2.483,71.2
2.484,71.2
2.485,71.0
2.486,70.8
2.487,71.0
2.488,70.8
2.489,71.0
2.49,71.0
2.491,71.0
2.492,71.0
2.493,71.0
2.494,70.8
2.495,70.8
2.496,70.8
2.497,71.0
2.498,71.0
2.499,71.0
2.5,70.8
2.501,71.0
2.5020000000000002,71.0
2.503,71.0
2.504,71.0
2.505,70.8
2.5060000000000002,70.8
2.507,70.8
2.508,70.8
2.509,70.8
2.5100000000000002,71.0
2.511,70.8
2.512,71.0
2.513,70.8
2.5140000000000002,71.0
2.515,70.8
2.516,70.8
2.517,70.8
2.5180000000000002,70.8
2.519,70.8
2.52,71.0
2.521,70.8
2.5220000000000002,70.6
2.523,70.6
2.524,70.8
2.525,70.8
2.5260000000000002,70.8
2.527,70.8
2.528,70.6
2.529,70.8
2.5300000000000002,70.6
2.531,70.8
2.532,70.4
2.533,70.8
2.5340000000000003,70.8
2.535,70.6
2.536,70.6
2.537,70.6
2.5380000000000003,70.8
2.539,70.6
2.54,70.6
2.541,70.6
2.5420000000000003,70.6
2.543,70.6
2.544,70.8
2.545,70.6
2.5460000000000003,70.8
2.547,70.6
2.548,70.6
2.549,70.8
2.5500000000000003,70.4
2.551,70.6
2.552,70.6
2.553,70.6
2.5540000000000003,70.6
2.555,70.6
2.556,70.6
2.557,70.4
2.5580000000000003,70.6
2.559,70.6
2.56,70.6
2.561,70.6
2.562,70.6
2.563,70.6
2.564,70.4
2.565,70.2
2.566,70.6
2.567,70.6
2.568,70.4
2.569,70.2
2.57,70.6
2.571,70.4
2.572,70.4
2.573,70.4
2.574,70.4
2.575,70.6
2.576,70.4
2.577,70.4
2.578,70.6
2.579,70.6
2.58,70.4
2.581,70.6
2.582,70.4
2.583,70.4
2.584,70.6
2.585,70.4
2.586,70.4
2.587,70.4
2.588,70.2
2.589,70.2
2.59,70.4
2.591,70.4
2.592,70.4
2.593,70.2
2.594,70.4
2.595,70.0
2.596,70.4
2.597,70.4
2.598,70.4
2.599,70.4
2.6,70.2
2.601,70.4
2.602,70.4
2.603,70.2
2.604,70.2
2.605,70.4
2.606,70.2
2.607,70.2
2.608,70.2
2.609,70.4
2.61,70.2
2.611,70.4
2.612,70.4
2.613,70.2
2.614,70.4
2.615,70.2
2.616,70.2
2.617,70.0
2.618,70.4
2.619,70.4
2.62,70.4
2.621,70.2
2.622,70.2
2.623,70.4
2.624,70.0
2.625,70.2
2.626,70.2
2.6270000000000002,70.2
2.628,70.0
2.629,70.0
2.63,70.2
2.6310000000000002,70.0
2.632,70.2
2.633,70.2
2.634,70.0
2.6350000000000002,70.0
2.636,70.0
2.637,70.0
2.638,70.0
2.6390000000000002,70.0
2.64,70.4
2.641,70.0
2.642,70.0
2.6430000000000002,70.4
2.644,70.0
2.645,70.0
2.646,70.2
2.6470000000000002,70.0
2.648,70.2
2.649,69.8
2.65,70.0
2.6510000000000002,70.0
2.652,70.0
2.653,70.0
2.654,70.0
2.6550000000000002,70.0
2.656,70.0
2.657,69.8
2.658,70.0
2.6590000000000003,70.0
2.66,70.0
2.661,70.0
2.662,69.8
2.6630000000000003,70.0
2.664,69.6
2.665,70.0
2.666,69.8
2.6670000000000003,69.8
2.668,69.6
2.669,69.8
2.67,70.0
2.6710000000000003,69.8
2.672,69.8
2.673,69.8
2.674,69.8
2.6750000000000003,69.8
2.676,69.8
2.677,70.0
2.678,69.8
2.6790000000000003,69.8
2.68,69.8
2.681,69.8
2.682,70.0
2.6830000000000003,69.8
2.684,69.6
2.685,69.8
2.686,69.8
2.6870000000000003,69.8
2.688,69.8
2.689,69.6
2.69,69.8
2.691,69.8
2.692,69.6
2.693,69.6
2.694,69.6
2.695,69.8
2.696,69.8
2.697,69.6
2.698,69.6
2.699,69.6
2.7,69.6
2.701,69.6
2.702,69.6
2.703,69.6
2.704,69.8
2.705,69.6
2.706,69.4
2.707,69.6
2.708,69.4
2.709,69.6
2.71,69.6
2.711,69.6
2.712,69.8
2.713,69.6
2.714,69.4
2.715,69.6
2.716,69.4
2.717,69.6
2.718,69.4
2.719,69.8
2.72,69.4
2.721,69.4
2.722,69.4
2.723,69.4
2.724,69.4
2.725,69.4
2.726,69.4
2.727,69.4
2.728,69.4
2.729,69.4
2.73,69.2
2.731,69.4
2.732,69.4
2.733,69.4
2.734,69.4
2.735,69.4
2.736,69.6
2.737,69.4
2.738,69.2
2.739,69.2
2.74,69.4
2.741,69.4
2.742,69.4
2.743,69.4
2.744,69.2
2.745,69.4
2.746,69.2
2.747,69.2
2.748,69.2
2.749,69.2
2.75,69.0
2.751,69.2
2.7520000000000002,69.2
2.753,69.2
2.754,69.2
2.755,69.2
2.7560000000000002,69.2
2.757,69.2
2.758,69.2
2.759,69.2
2.7600000000000002,69.2
2.761,69.0
2.762,69.0
2.763,69.0
2.7640000000000002,69.0
2.765,69.0
2.766,69.2
2.767,69.2
2.7680000000000002,69.2
2.769,69.0
2.77,69.2
2.771,69.2
2.7720000000000002,69.0
2.773,69.0
2.774,69.0
2.775,69.0
2.7760000000000002,69.0
2.777,69.0
2.778,69.2
2.779,69.0
2.7800000000000002,68.8
2.781,68.8
2.782,69.0
2.783,68.8
2.7840000000000003,68.8
2.785,69.0
2.786,69.0
2.787,69.0
2.7880000000000003,68.8
2.789,69.0
2.79,69.2
2.791,68.8
2.7920000000000003,69.0
2.793,68.8
2.794,69.0
2.795,69.0
2.7960000000000003,69.0
2.797,69.2
2.798,69.0
2.799,69.0
2.8000000000000003,68.8
2.801,69.0
2.802,69.0
2.803,68.8
2.8040000000000003,68.8
2.805,68.8
2.806,68.8
2.807,68.8
2.8080000000000003,69.0
2.809,68.8
2.81,68.8
2.811,68.8
2.8120000000000003,68.8
2.813,68.8
2.814,68.6
2.815,68.8
2.816,68.8
2.817,68.8
2.818,68.8
2.819,68.8
2.82,68.8
2.821,68.8
2.822,69.0
2.823,68.6
2.824,68.8
2.825,68.6
2.826,68.6
2.827,68.8
2.828,68.8
2.829,68.6
2.83,68.8
2.831,68.8
2.832,68.4
2.833,68.6
2.834,68.8
2.835,68.6
2.836,68.6
2.837,68.6
2.838,68.6
2.839,68.8
2.84,68.6
2.841,68.6
2.842,68.4
2.843,68.6
2.844,68.8
2.845,68.4
2.846,68.6
2.847,68.4
2.848,68.6
2.849,68.4
2.85,68.6
2.851,68.6
2.852,68.6
2.853,68.4
2.854,68.6
2.855,68.6
2.856,68.4
2.857,68.4
2.858,68.6
2.859,68.4
2.86,68.6
2.861,68.4
2.862,68.4
2.863,68.6
2.864,68.4
2.865,68.4
2.866,68.4
2.867,68.4
2.868,68.4
2.869,68.4
2.87,68.2
2.871,68.4
2.872,68.4
2.873,68.2
2.874,68.4
2.875,68.2
2.876,68.4
2.8770000000000002,68.4
2.878,68.4
2.879,68.4
2.88,68.4
2.8810000000000002,68.4
2.882,68.4
2.883,68.4
2.884,68.2
2.8850000000000002,68.2
2.886,68.2
2.887,68.2
2.888,68.2
2.8890000000000002,68.2
2.89,68.2
2.891,68.2
2.892,68.0
2.8930000000000002,68.2
2.894,68.4
2.895,68.2
2.896,68.2
2.8970000000000002,68.2
2.898,68.4
2.899,68.2
2.9,68.2
2.9010000000000002,68.2
2.902,68.4
2.903,68.0
2.904,68.0
2.9050000000000002,68.2
2.906,68.0
2.907,68.0
2.908,68.2
2.9090000000000003,68.0
2.91,68.0
2.911,68.4
2.912,68.0
2.9130000000000003,68.2
2.914,68.2
2.915,68.2
2.916,68.0
2.9170000000000003,68.0
2.918,67.8
2.919,68.2
2.92,68.0
2.9210000000000003,68.2
2.922,67.8
2.923,68.0
2.924,68.0
2.9250000000000003,68.0
2.926,68.0
2.927,68.2
2.928,67.8
2.9290000000000003,68.0
2.93,68.0
2.931,67.8
2.932,68.0
2.9330000000000003,68.0
2.934,68.0
2.935,68.0
2.936,67.8
2.9370000000000003,68.0
2.938,67.8
2.939,67.8
2.94,68.0
2.9410000000000003,67.8
2.942,68.0
2.943,67.8
2.944,67.8
2.945,68.0
2.946,67.8
2.947,67.8
2.948,67.8
2.949,67.8
2.95,67.8
2.951,67.8
2.952,67.8
2.953,68.0
2.954,67.8
2.955,67.8
2.956,67.8
2.957,67.8
2.958,67.8
2.959,67.8
2.96,67.8
2.961,67.6
2.962,67.8
2.963,67.8
2.964,67.8
2.965,67.8
2.966,67.6
2.967,67.6
2.968,67.8
2.969,67.6
2.97,67.8
2.971,67.6
2.972,67.6
2.973,67.8
2.974,67.6
2.975,67.8
2.976,67.8
2.977,67.4
2.978,67.8
2.979,67.6
2.98,67.6
2.981,67.6
2.982,67.6
2.983,67.6
2.984,67.6
2.985,67.4
2.986,67.6
2.987,67.4
2.988,67.6
2.989,67.6
2.99,67.4
2.991,67.6
2.992,67.4
2.993,67.6
2.994,67.6
2.995,67.6
2.996,67.4
2.997,67.6
2.998,67.6
2.999,67.4
3.0,67.4
3.001,67.6
3.0020000000000002,67.6
3.003,67.4
3.004,67.4
3.005,67.4
3.0060000000000002,67.4
3.007,67.6
3.008,67.6
3.009,67.6
3.0100000000000002,67.6
3.011,67.2
3.012,67.4
3.013,67.4
3.0140000000000002,67.4
3.015,67.2
3.016,67.4
3.017,67.2
3.0180000000000002,67.6
3.019,67.4
3.02,67.2
3.021,67.2
3.0220000000000002,67.2
3.023,67.2
3.024,67.4
3.025,67.4
3.0260000000000002,67.4
3.027,67.2
3.028,67.4
3.029,67.2
3.0300000000000002,67.4
3.031,67.4
3.032,67.4
3.033,67.2
3.0340000000000003,67.2
3.035,67.2
3.036,67.2
3.037,67.4
3.0380000000000003,67.2
3.039,67.4
3.04,67.2
3.041,67.2
3.0420000000000003,67.2
3.043,67.2
3.044,67.2
3.045,67.0
3.0460000000000003,67.0
3.047,67.2
3.048,67.2
3.049,67.2
3.0500000000000003,66.8
3.051,67.0
3.052,67.0
3.053,67.2
3.0540000000000003,67.2
3.055,67.0
3.056,67.0
3.057,67.0
3.0580000000000003,67.2
3.059,67.0
3.06,67.0
3.061,67.2
3.0620000000000003,67.0
3.063,67.0
3.064,67.0
3.065,67.0
3.0660000000000003,66.8
3.067,67.0
3.068,67.0
3.069,67.0
3.0700000000000003,66.8
3.071,66.8
3.072,67.0
3.073,66.8
3.074,67.0
3.075,67.0
3.076,66.8
3.077,66.8
3.078,66.8
3.079,67.0
3.08,67.0
3.081,66.8
3.082,66.8
3.083,66.8
3.084,67.0
3.085,66.8
3.086,66.8
3.087,66.8
3.088,66.8
3.089,66.8
3.09,66.8
3.091,66.8
3.092,66.8
3.093,66.8
3.094,66.8
3.095,66.8
3.096,66.8
3.097,66.8
3.098,66.8
3.099,66.8
3.1,66.8
3.101,66.6
3.102,67.0
3.103,66.8
3.104,66.8
3.105,66.8
3.106,66.8
3.107,66.8
3.108,66.8
3.109,66.8
3.11,66.6
3.111,66.8
3.112,66.8
3.113,66.8
3.114,66.8
3.115,66.6
3.116,66.6
3.117,66.8
3.118,66.8
3.119,66.8
3.12,66.6
3.121,66.6
3.122,66.6
3.123,66.6
3.124,66.4
3.125,66.6
3.126,66.6
3.1270000000000002,66.6
3.128,66.8
3.129,66.6
3.13,66.4
3.1310000000000002,66.4
3.132,66.8
3.133,66.6
3.134,66.6
3.1350000000000002,66.6
3.136,66.4
3.137,66.6
3.138,66.6
3.1390000000000002,66.4
3.14,66.4
3.141,66.6
3.142,66.4
3.1430000000000002,66.6
3.144,66.4
3.145,66.4
3.146,66.4
3.1470000000000002,66.4
3.148,66.4
3.149,66.4
3.15,66.4
3.1510000000000002,66.4
3.152,66.2
3.153,66.4
3.154,66.4
3.1550000000000002,66.4
3.156,66.4
3.157,66.4
3.158,66.4
3.1590000000000003,66.2
3.16,66.4
3.161,66.4
3.162,66.6
3.1630000000000003,66.2
3.164,66.4
3.165,66.4
3.166,66.4
3.1670000000000003,66.2
3.168,66.2
3.169,66.2
3.17,66.2
3.1710000000000003,66.4
3.172,66.2
3.173,66.2
3.174,66.2
3.1750000000000003,66.2
3.176,66.2
3.177,66.4
3.178,66.4
3.1790000000000003,66.0
3.18,66.4
3.181,66.2
3.182,66.2
3.1830000000000003,66.2
3.184,66.4
3.185,66.2
3.186,66.2
3.1870000000000003,66.0
3.188,66.2
3.189,66.2
3.19,66.2
3.1910000000000003,66.4
3.192,66.2
3.193,66.2
3.194,66.2
3.1950000000000003,66.2
3.196,66.4
3.197,66.2
3.198,65.8
3.1990000000000003,66.2
3.2,66.2
3.201,66.2
3.202,66.0
3.203,66.0
3.204,66.0
3.205,66.2
3.206,66.2
3.207,66.2
3.208,66.2
3.209,65.8
3.21,66.0
3.211,66.0
3.212,66.2
3.213,66.2
3.214,66.2
3.215,65.8
3.216,66.0
3.217,66.2
3.218,66.0
3.219,66.0
3.22,66.0
3.221,66.0
3.222,65.8
3.223,66.0
3.224,66.0
3.225,66.0
3.226,66.0
3.227,66.0
3.228,65.8
3.229,66.0
3.23,66.0
3.231,66.0
3.232,65.8
3.233,66.0
3.234,66.0
3.235,65.8
3.236,66.0
3.237,66.0
3.238,66.0
3.239,66.0
3.24,65.8
3.241,66.0
3.242,65.8
3.243,65.6
3.244,66.0
3.245,65.8
3.246,66.0
3.247,66.0
3.248,65.8
3.249,65.8
3.25,65.8
3.251,65.6
3.2520000000000002,65.8
3.253,65.8
3.254,65.8
3.255,65.8
3.2560000000000002,65.8
3.257,65.6
3.258,65.6
3.259,66.0
3.2600000000000002,65.8
3.261,65.6
3.262,65.8
3.263,65.6
3.2640000000000002,65.8
3.265,65.8
3.266,65.6
3.267,65.6
3.2680000000000002,65.6
3.269,65.8
3.27,65.8
3.271,65.8
3.2720000000000002,65.8
3.273,65.8
3.274,65.8
3.275,65.8
3.2760000000000002,65.8
3.277,65.8
3.278,65.6
3.279,65.8
3.2800000000000002,65.6
3.281,65.6
3.282,65.6
3.283,65.8
3.2840000000000003,65.4
3.285,65.8
3.286,65.6
3.287,65.6
3.2880000000000003,65.6
3.289,65.8
3.29,65.6
3.291,65.8
3.2920000000000003,65.4
3.293,65.6
3.294,65.4
3.295,65.8
3.2960000000000003,65.6
3.297,65.4
3.298,65.6
3.299,65.6
3.3000000000000003,65.6
3.301,65.6
3.302,65.8
3.303,65.6
3.3040000000000003,65.4
3.305,65.4
3.306,65.6
3.307,65.6
3.3080000000000003,65.2
3.309,65.6
3.31,65.4
3.311,65.4
3.3120000000000003,65.4
3.313,65.8
3.314,65.2
3.315,65.2
3.3160000000000003,65.4
3.317,65.4
3.318,65.2
3.319,65.4
3.3200000000000003,65.6
3.321,65.4
3.322,65.4
3.323,65.4
3.3240000000000003,65.4
3.325,65.4
3.326,65.6
3.327,65.2
3.3280000000000003,65.2
3.329,65.4
3.33,65.4
3.331,65.4
3.332,65.2
3.333,65.4
3.334,65.4
3.335,65.4
3.336,65.4
3.337,65.2
3.338,65.2
3.339,65.4
3.34,65.2
3.341,65.4
3.342,65.2
3.343,65.2
3.344,65.4
3.345,65.2
3.346,65.4
3.347,65.4
3.348,65.2
3.349,65.4
3.35,65.4
3.351,65.2
3.352,65.4
3.353,65.2
3.354,65.4
3.355,65.2
3.356,65.0
3.357,65.0
3.358,65.4
3.359,65.4
3.36,65.2
3.361,65.0
3.362,65.2
3.363,65.2
3.364,65.4
3.365,65.0
3.366,65.0
3.367,65.2
3.368,65.0
3.369,65.2
3.37,65.2
3.371,65.2
3.372,65.0
3.373,65.2
3.374,65.2
3.375,65.2
3.376,65.2
3.3770000000000002,65.0
3.378,65.2
3.379,65.2
3.38,65.2
3.3810000000000002,65.2
3.382,65.2
3.383,65.0
3.384,65.2
3.3850000000000002,65.0
3.386,65.0
3.387,65.2
3.388,65.2
3.3890000000000002,65.2
3.39,65.2
3.391,65.0
3.392,65.0
3.3930000000000002,65.0
3.394,65.2
3.395,65.2
3.396,65.0
3.3970000000000002,65.2
3.398,65.0
3.399,64.8
3.4,64.8
3.4010000000000002,65.2
3.402,65.0
3.403,65.2
3.404,65.0
3.4050000000000002,65.0
3.406,65.0
3.407,64.8
3.408,65.0
3.4090000000000003,64.8
3.41,65.0
3.411,65.0
3.412,65.2
3.4130000000000003,64.8
3.414,65.0
3.415,65.2
3.416,64.8
3.4170000000000003,64.8
3.418,65.0
3.419,64.8
3.42,64.8
3.4210000000000003,65.0
3.422,64.8
3.423,65.0
3.424,65.0
3.4250000000000003,65.0
3.426,64.8
3.427,64.8
3.428,64.8
3.4290000000000003,65.2
3.43,64.8
3.431,65.0
3.432,65.0
3.4330000000000003,65.0
3.434,65.0
3.435,65.0
3.436,64.8
3.4370000000000003,64.8
3.438,64.8
3.439,64.8
3.44,64.8
3.4410000000000003,64.6
3.442,64.8
3.443,64.8
3.444,65.0
3.4450000000000003,64.8
3.446,65.0
3.447,65.0
3.448,65.0
3.4490000000000003,64.8
3.45,65.0
3.451,65.0
3.452,65.0
3.4530000000000003,64.8
3.454,64.8
3.455,64.6
3.456,64.8
3.457,65.0
3.458,65.0
3.459,64.6
3.46,64.8
3.461,64.8
3.462,64.8
3.463,64.8
3.464,64.8
3.465,64.6
3.466,64.6
3.467,64.6
3.468,64.6
3.469,64.6
3.47,64.8
3.471,64.6
3.472,64.8
3.473,64.6
3.474,64.8
3.475,64.8
3.476,64.6
3.477,65.0
3.478,64.8
3.479,64.6
3.48,64.6
3.481,64.8
3.482,64.8
3.483,64.8
3.484,64.6
3.485,64.6
3.486,64.6
3.487,64.8
3.488,64.8
3.489,64.6
3.49,64.6
3.491,64.6
3.492,64.6
3.493,64.8
3.494,64.4
3.495,64.6
3.496,64.8
3.497,64.6
3.498,64.6
3.499,64.6
3.5,64.6
3.501,64.6
3.5020000000000002,64.8
3.503,64.8
3.504,64.6
3.505,64.8
3.5060000000000002,64.6
3.507,64.8
3.508,64.6
3.509,64.8
3.5100000000000002,64.4
3.511,64.8
3.512,64.6
3.513,64.8
3.5140000000000002,64.6
3.515,64.6
3.516,64.4
3.517,64.8
3.5180000000000002,64.4
3.519,64.6
3.52,64.6
3.521,64.6
3.5220000000000002,64.4
3.523,64.6
3.524,64.6
3.525,64.4
3.5260000000000002,64.6
3.527,64.4
3.528,64.8
3.529,64.4
3.5300000000000002,64.6
3.531,64.6
3.532,64.6
3.533,64.6
3.5340000000000003,64.6
3.535,64.6
3.536,64.6
3.537,64.6
3.5380000000000003,64.6
3.539,64.4
3.54,64.4
3.541,64.4
3.5420000000000003,64.6
3.543,64.6
3.544,64.6
3.545,64.4
3.5460000000000003,64.6
3.547,64.6
3.548,64.4
3.549,64.6
3.5500000000000003,64.6
3.551,64.6
3.552,64.4
3.553,64.4
3.5540000000000003,64.2
3.555,64.2
3.556,64.4
3.557,64.6
3.5580000000000003,64.2
3.559,64.4
3.56,64.4
3.561,64.6
3.5620000000000003,64.6
3.563,64.4
3.564,64.4
3.565,64.2
3.5660000000000003,64.4
3.567,64.6
3.568,64.4
3.569,64.6
3.5700000000000003,64.4
3.571,64.4
3.572,64.6
3.573,64.4
3.5740000000000003,64.6
3.575,64.2
3.576,64.4
3.577,64.4
3.5780000000000003,64.4
3.579,64.4
3.58,64.4
3.581,64.6
3.5820000000000003,64.2
3.583,64.2
3.584,64.2
3.585,64.2
3.586,64.2
3.587,64.4
3.588,64.4
3.589,64.4
3.59,64.2
3.591,64.4
3.592,64.4
3.593,64.4
3.594,64.2
3.595,64.4
3.596,64.4
3.597,64.2
3.598,64.2
3.599,64.4
3.6,64.4
3.601,64.2
3.602,64.4
3.603,64.2
3.604,64.4
3.605,64.2
3.606,64.4
3.607,64.4
3.608,64.4
3.609,64.2
3.61,64.6
3.611,64.2
3.612,64.4
3.613,64.6
3.614,64.2
3.615,64.2
3.616,64.4
3.617,64.0
3.618,64.2
3.619,64.4
3.62,64.4
3.621,64.4
3.622,64.6
3.623,64.4
3.624,64.2
3.625,64.2
3.626,64.2
3.6270000000000002,64.4
3.628,64.2
3.629,64.4
3.63,64.2
3.6310000000000002,64.2
3.632,64.6
3.633,64.4
3.634,64.4
3.6350000000000002,64.2
3.636,64.2
3.637,64.2
3.638,64.2
3.6390000000000002,64.2
3.64,64.4
3.641,64.2
3.642,64.2
3.6430000000000002,64.2
3.644,64.2
3.645,64.2
3.646,64.2
3.6470000000000002,64.2
3.648,64.2
3.649,64.2
3.65,64.4
3.6510000000000002,64.2
3.652,64.2
3.653,64.0
3.654,64.0
3.6550000000000002,64.2
3.656,64.2
3.657,64.2
3.658,64.0
3.6590000000000003,64.2
3.66,64.2
3.661,64.2
3.662,64.0
3.6630000000000003,64.0
3.664,64.2
3.665,64.0
3.666,64.2
3.6670000000000003,64.2
3.668,64.4
3.669,64.2
3.67,64.2
3.6710000000000003,64.2
3.672,64.2
3.673,64.2
3.674,64.0
3.6750000000000003,64.2
3.676,64.2
3.677,64.0
3.678,64.0
3.6790000000000003,64.2
3.68,64.2
3.681,64.2
3.682,64.0
3.6830000000000003,64.0
3.684,64.0
3.685,64.2
3.686,64.2
3.6870000000000003,64.2
3.688,64.0
3.689,64.2
3.69,64.2
3.6910000000000003,64.2
3.692,64.0
3.693,64.2
3.694,64.2
3.6950000000000003,64.0
3.696,64.0
3.697,64.0
3.698,64.2
3.6990000000000003,64.2
3.7,64.2
3.701,64.2
3.702,64.0
3.7030000000000003,64.0
3.704,64.0
3.705,64.2
3.706,64.0
3.7070000000000003,64.0
3.708,64.2
3.709,64.0
3.71,64.0
3.7110000000000003,64.0
3.712,64.2
3.713,64.0
3.714,64.0
3.715,64.2
3.716,64.0
3.717,64.0
3.718,64.2
3.719,64.2
3.72,63.8
3.721,64.2
3.722,64.0
3.723,64.0
3.724,64.0
3.725,64.0
3.726,64.2
3.727,64.0
3.728,64.2
3.729,64.2
3.73,64.0
3.731,64.0
3.732,64.2
3.733,64.0
3.734,64.2
3.735,64.0
3.736,64.2
3.737,64.2
3.738,64.0
3.739,64.0
3.74,64.0
3.741,64.2
3.742,64.0
3.743,64.2
3.744,64.2
3.745,64.0
3.746,63.8
3.747,64.2
3.748,64.2
3.749,64.2
3.75,64.2
3.751,63.8
3.7520000000000002,64.0
3.753,63.8
3.754,64.2
3.755,64.0
3.7560000000000002,64.0
3.757,63.8
3.758,64.2
3.759,64.2
3.7600000000000002,64.2
3.761,64.0
3.762,64.0
3.763,64.0
3.7640000000000002,63.8
3.765,64.0
3.766,64.0
3.767,64.0
3.7680000000000002,63.8
3.769,64.2
3.77,64.0
3.771,63.8
3.7720000000000002,64.0
3.773,63.8
3.774,64.2
3.775,64.0
3.7760000000000002,63.8
3.777,63.8
3.778,64.0
3.779,64.0
3.7800000000000002,64.2
3.781,64.0
3.782,63.8
3.783,63.8
3.7840000000000003,64.0
3.785,64.0
3.786,64.0
3.787,63.8
3.7880000000000003,64.0
3.789,64.0
3.79,64.0
3.791,63.8
3.7920000000000003,64.0
3.793,64.0
3.794,64.0
3.795,63.8
3.7960000000000003,63.8
3.797,63.8
3.798,64.0
3.799,64.2
3.8000000000000003,63.8
3.801,64.2
3.802,64.0
3.803,63.8
3.8040000000000003,64.0
3.805,63.8
3.806,63.8
3.807,64.0
3.8080000000000003,64.0
3.809,63.8
3.81,63.8
3.811,64.2
3.8120000000000003,63.8
3.813,63.8
3.814,63.8
3.815,63.6
3.8160000000000003,63.8
3.817,63.8
3.818,64.0
3.819,63.8
3.8200000000000003,63.8
3.821,64.0
3.822,64.0
3.823,63.6
3.8240000000000003,63.8
3.825,63.8
3.826,63.8
3.827,64.0
3.8280000000000003,64.2
3.829,63.8
3.83,64.2
3.831,64.0
3.8320000000000003,63.8
3.833,64.0
3.834,64.0
3.835,63.8
3.8360000000000003,64.0
3.837,63.6
3.838,63.8
3.839,63.8
3.84,64.2
3.841,63.8
3.842,63.8
3.843,64.0
3.844,63.8
3.845,63.8
3.846,63.8
3.847,63.8
3.848,63.8
3.849,64.0
3.85,63.8
3.851,63.6
3.852,63.6
3.853,64.0
3.854,64.0
3.855,63.8
3.856,63.6
3.857,64.0
3.858,63.8
3.859,64.0
3.86,63.6
3.861,63.6
3.862,63.8
3.863,63.8
3.864,64.0
3.865,64.0
3.866,63.8
3.867,63.8
3.868,63.8
3.869,63.8
3.87,64.0
3.871,63.8
3.872,63.8
3.873,63.8
3.874,63.8
3.875,63.8
3.876,63.8
3.8770000000000002,63.8
3.878,63.8
3.879,64.0
3.88,63.6
3.8810000000000002,63.8
3.882,63.8
3.883,64.0
3.884,64.0
3.8850000000000002,64.0
3.886,63.6
3.887,63.8
3.888,63.8
3.8890000000000002,64.0
3.89,63.8
3.891,63.6
3.892,64.0
3.8930000000000002,63.8
3.894,63.6
3.895,63.8
3.896,63.8
3.8970000000000002,64.2
3.898,64.0
3.899,64.0
3.9,63.8
3.9010000000000002,63.8
3.902,63.8
3.903,63.8
3.904,63.6
3.9050000000000002,63.8
3.906,63.8
3.907,64.0
3.908,63.6
3.9090000000000003,63.6
3.91,63.6
3.911,64.0
3.912,63.4
3.9130000000000003,63.8
3.914,63.6
3.915,63.6
3.916,64.0
3.9170000000000003,64.0
3.918,63.6
3.919,64.0
3.92,63.8
3.9210000000000003,63.6
3.922,63.8
3.923,63.8
3.924,64.0
3.9250000000000003,63.6
3.926,63.8
3.927,64.0
3.928,63.6
3.9290000000000003,63.6
3.93,63.8
3.931,63.8
3.932,63.8
3.9330000000000003,63.8
3.934,63.8
3.935,64.0
3.936,63.6
3.9370000000000003,63.8
3.938,63.8
3.939,63.8
3.94,63.6
3.9410000000000003,63.8
3.942,64.0
3.943,63.8
3.944,63.6
3.9450000000000003,63.8
3.946,63.8
3.947,63.8
3.948,63.8
3.9490000000000003,63.8
3.95,63.6
3.951,63.6
3.952,63.8
3.9530000000000003,63.6
3.954,63.6
3.955,63.6
3.956,63.8
3.9570000000000003,63.6
3.958,63.8
3.959,63.6
3.96,63.6
3.9610000000000003,63.6
3.962,63.8
3.963,63.8
3.964,63.8
3.9650000000000003,63.8
3.966,63.6
3.967,63.6
3.968,63.8
3.969,63.8
3.97,63.8
3.971,63.8
3.972,63.8
3.973,63.6
3.974,63.6
3.975,63.8
3.976,63.8
3.977,63.8
3.978,63.6
3.979,63.4
3.98,64.0
3.981,63.6
3.982,63.8
3.983,63.8
3.984,63.8
3.985,63.6
3.986,63.6
3.987,63.6
3.988,63.8
3.989,63.6
3.99,63.6
3.991,63.8
3.992,63.8
3.993,63.6
3.994,63.6
3.995,63.8
3.996,63.8
3.997,63.8
3.998,63.8
3.999,63.8
4.0,64.0
4.001,63.4
4.002,63.8
4.003,63.6
4.0040000000000004,63.8
4.005,63.8
4.006,63.8
4.007,63.6
4.008,63.8
4.009,63.6
4.01,63.6
4.011,63.8
4.0120000000000005,63.8
4.013,63.6
4.014,63.6
4.015,63.8
4.016,63.8
4.017,63.6
4.018,63.8
4.019,63.8
4.0200000000000005,63.8
4.021,63.6
4.022,63.8
4.023,63.8
4.024,63.8
4.025,63.8
4.026,63.8
4.027,63.6
4.0280000000000005,63.8
4.029,63.8
4.03,63.6
4.031,63.8
4.032,63.8
4.033,63.8
4.034,64.0
4.035,63.6
4.0360000000000005,63.8
4.037,63.6
4.038,63.8
4.039,63.8
4.04,63.8
4.041,63.8
4.042,63.8
4.043,63.6
4.0440000000000005,63.8
4.045,63.8
4.046,63.8
4.047,63.8
4.048,63.6
4.049,63.6
4.05,63.6
4.051,63.8
4.0520000000000005,63.8
4.053,63.6
4.054,63.8
4.055,63.8
4.056,63.6
4.057,64.0
4.058,63.8
4.059,63.8
4.0600000000000005,63.6
4.061,63.6
4.062,63.8
4.063,63.8
4.064,63.8
4.065,63.6
4.066,63.6
4.067,64.0
4.0680000000000005,63.6
4.069,64.0
4.07,63.6
4.071,63.8
4.072,63.8
4.073,63.8
4.074,63.6
4.075,63.8
4.0760000000000005,63.8
4.077,64.0
4.078,63.8
4.079,63.6
4.08,63.8
4.081,63.8
4.082,64.0
4.083,63.8
4.0840000000000005,63.6
4.085,63.8
4.086,63.8
4.087,64.2
4.088,63.8
4.089,63.8
4.09,63.8
4.091,63.8
4.0920000000000005,63.6
4.093,63.6
4.094,63.6
4.095,63.6
4.096,63.8
4.097,63.6
4.098,63.8
4.099,64.0
4.1,63.8
4.101,63.8
4.102,63.6
4.103,64.0
4.104,63.8
4.105,63.8
4.106,63.6
4.107,63.8
4.108,64.0
4.109,63.8
4.11,63.8
4.111,63.8
4.112,63.6
4.113,64.0
4.114,63.8
4.115,63.8
4.116,63.8
4.117,64.0
4.118,64.0
4.119,63.8
4.12,63.6
4.121,63.8
4.122,64.0
4.123,63.8
4.124,64.0
4.125,63.8
4.126,63.8
4.127,64.0
4.128,64.0
4.1290000000000004,63.8
4.13,63.8
4.131,63.8
4.132,63.8
4.133,63.8
4.134,63.8
4.135,64.0
4.136,63.8
4.1370000000000005,64.0
4.138,63.8
4.139,63.8
4.14,64.0
4.141,63.8
4.142,63.8
4.143,64.0
4.144,63.8
4.1450000000000005,64.2
4.146,64.0
4.147,64.0
4.148,63.8
4.149,63.6
4.15,64.0
4.151,63.8
4.152,63.8
4.1530000000000005,63.8
4.154,63.8
4.155,64.0
4.156,64.0
4.157,63.6
4.158,63.8
4.159,63.8
4.16,63.8
4.1610000000000005,63.8
4.162,64.0
4.163,64.0
4.164,63.8
4.165,64.0
4.166,64.0
4.167,64.0
4.168,64.0
4.1690000000000005,63.6
4.17,63.8
4.171,63.8
4.172,64.0
4.173,63.8
4.174,64.0
4.175,64.0
4.176,63.8
4.1770000000000005,63.6
4.178,63.8
4.179,64.0
4.18,64.0
4.181,63.8
4.182,63.8
4.183,63.8
4.184,63.8
4.1850000000000005,63.8
4.186,63.8
4.187,63.8
4.188,63.6
4.189,64.0
4.19,64.0
4.191,63.8
4.192,63.8
4.1930000000000005,63.8
4.194,64.2
4.195,64.2
4.196,64.0
4.197,64.0
4.198,64.2
4.199,64.0
4.2,64.2
4.2010000000000005,63.8
4.202,64.2
4.203,64.2
4.204,64.0
4.205,63.8
4.206,64.0
4.207,64.0
4.208,63.8
4.2090000000000005,63.8
4.21,64.0
4.211,64.0
4.212,63.8
4.213,64.2
4.214,64.0
4.215,63.8
4.216,64.0
4.2170000000000005,64.0
4.218,63.8
4.219,64.0
4.22,63.8
4.221,64.2
4.222,64.0
4.223,64.0
4.224,64.0
4.225,64.0
4.226,64.2
4.227,64.0
4.228,64.0
4.229,64.0
4.23,64.2
4.231,63.8
4.232,64.2
4.233,63.8
4.234,64.4
4.235,64.0
4.236,64.2
4.237,64.0
4.238,64.0
4.239,64.2
4.24,64.2
4.241,64.0
4.242,64.2
4.243,64.0
4.244,64.2
4.245,64.2
4.246,64.0
4.247,64.0
4.248,64.0
4.249,64.2
4.25,64.2
4.251,64.0
4.252,64.0
4.253,63.8
4.2540000000000004,64.2
4.255,64.0
4.256,63.8
4.257,64.0
4.258,64.0
4.259,64.0
4.26,64.2
4.261,64.2
4.2620000000000005,64.2
4.263,64.0
4.264,64.2
4.265,64.0
4.266,64.0
4.267,64.2
4.268,64.0
4.269,64.2
4.2700000000000005,64.0
4.271,64.0
4.272,64.0
4.273,64.2
4.274,64.2
4.275,64.0
4.276,64.0
4.277,64.0
4.2780000000000005,64.2
4.279,64.2
4.28,64.2
4.281,64.2
4.282,64.0
4.283,64.0
4.284,63.8
4.285,64.0
4.2860000000000005,64.0
4.287,64.0
4.288,64.2
4.289,63.8
4.29,64.0
4.291,64.0
4.292,64.2
4.293,64.2
4.2940000000000005,64.2
4.295,64.2
4.296,64.2
4.297,64.2
4.298,64.0
4.299,64.2
4.3,64.0
4.301,64.2
4.3020000000000005,64.2
4.303,64.2
4.304,64.0
4.305,64.0
4.306,64.2
4.307,64.2
4.308,64.0
4.309,64.0
4.3100000000000005,64.0
4.311,64.0
4.312,64.4
4.313,64.2
4.314,64.0
4.315,64.2
4.316,64.2
4.317,64.2
4.3180000000000005,64.0
4.319,64.0
4.32,64.2
4.321,64.0
4.322,64.2
4.323,64.2
4.324,64.0
4.325,64.2
4.3260000000000005,64.2
4.327,64.2
4.328,64.2
4.329,64.2
4.33,64.2
4.331,64.2
4.332,64.0
4.333,64.2
4.3340000000000005,64.0
4.335,64.2
4.336,64.2
4.337,64.2
4.338,64.2
4.339,64.2
4.34,64.0
4.341,64.2
4.3420000000000005,64.2
4.343,64.2
4.344,64.2
4.345,64.2
4.346,64.2
4.347,64.0
4.348,64.4
4.349,64.2
4.3500000000000005,64.2
4.351,64.0
4.352,64.2
4.353,64.2
4.354,64.2
4.355,64.0
4.356,64.4
4.357,64.2
4.358,64.2
4.359,64.4
4.36,64.2
4.361,64.2
4.362,64.2
4.363,64.2
4.364,64.2
4.365,64.2
4.366,64.4
4.367,64.2
4.368,64.2
4.369,64.2
4.37,64.4
4.371,64.2
4.372,64.4
4.373,64.4
4.374,64.4
4.375,64.2
4.376,64.2
4.377,64.2
4.378,64.4
4.3790000000000004,64.4
4.38,64.4
4.381,64.2
4.382,64.2
4.383,64.4
4.384,64.2
4.385,64.2
4.386,64.2
4.3870000000000005,64.4
4.388,64.2
4.389,64.2
4.39,64.2
4.391,64.6
4.392,64.4
4.393,64.2
4.394,64.4
4.3950000000000005,64.4
4.396,64.2
4.397,64.2
4.398,64.4
4.399,64.2
4.4,64.2
4.401,64.6
4.402,64.4
4.4030000000000005,64.2
4.404,64.4
4.405,64.4
4.406,64.2
4.407,64.2
4.408,64.4
4.409,64.4
4.41,64.4
4.4110000000000005,64.4
4.412,64.2
4.413,64.2
4.414,64.6
4.415,64.6
4.416,64.2
4.417,64.2
4.418,64.2
4.4190000000000005,64.6
4.42,64.2
4.421,64.4
4.422,64.4
4.423,64.4
4.424,64.6
4.425,64.6
4.426,64.4
4.4270000000000005,64.6
4.428,64.4
4.429,64.2
4.43,64.6
4.431,64.2
4.432,64.4
4.433,64.4
4.434,64.6
4.4350000000000005,64.4
4.436,64.6
4.437,64.4
4.438,64.4
4.439,64.4
4.44,64.4
4.441,64.4
4.442,64.6
4.4430000000000005,64.4
4.444,64.4
4.445,64.4
4.446,64.4
4.447,64.6
4.448,64.4
4.449,64.2
4.45,64.4
4.4510000000000005,64.6
4.452,64.4
4.453,64.4
4.454,64.2
4.455,64.4
4.456,64.4
4.457,64.2
4.458,64.6
4.4590000000000005,64.6
4.46,64.6
4.461,64.4
4.462,64.6
4.463,64.6
4.464,64.6
4.465,64.8
4.466,64.6
4.4670000000000005,64.6
4.468,64.6
4.469,64.6
4.47,64.4
4.471,64.6
4.472,64.6
4.473,64.6
4.474,64.6
4.4750000000000005,64.6
4.476,64.6
4.477,64.6
4.478,64.6
4.479,64.6
4.48,64.6
4.481,64.8
4.482,64.6
4.483,64.8
4.484,64.4
4.485,64.4
4.486,64.6
4.487,64.4
4.488,64.4
4.489,64.6
4.49,64.6
4.491,64.6
4.492,64.6
4.493,64.8
4.494,64.6
4.495,64.6
4.496,64.6
4.497,64.6
4.498,64.4
4.499,64.8
4.5,64.6
4.501,64.6
4.502,64.4
4.503,64.6
4.5040000000000004,64.8
4.505,64.6
4.506,64.6
4.507,64.8
4.508,64.4
4.509,64.6
4.51,64.6
4.511,64.8
4.5120000000000005,64.6
4.513,64.8
4.514,64.6
4.515,64.6
4.516,64.6
4.517,64.8
4.518,64.8
4.519,64.6
4.5200000000000005,64.8
4.521,64.6
4.522,64.6
4.523,64.8
4.524,64.8
4.525,64.6
4.526,64.8
4.527,64.8
4.5280000000000005,64.8
4.529,64.8
4.53,64.6
4.531,64.8
4.532,64.8
4.533,65.0
4.534,64.8
4.535,65.0
4.5360000000000005,64.8
4.537,64.8
4.538,64.6
4.539,64.8
4.54,64.8
4.541,65.0
4.542,64.8
4.543,64.8
4.5440000000000005,64.6
4.545,64.8
4.546,65.0
4.547,64.8
4.548,64.6
4.549,64.8
4.55,64.8
4.551,64.8
4.5520000000000005,65.0
4.553,64.8
4.554,64.8
4.555,64.8
4.556,64.8
4.557,65.0
4.558,64.8
4.559,64.8
4.5600000000000005,64.8
4.561,64.8
4.562,65.2
4.563,65.0
4.564,65.0
4.565,64.6
4.566,65.0
4.567,64.8
4.5680000000000005,64.8
4.569,65.0
4.57,64.8
4.571,65.0
4.572,65.0
4.573,64.8
4.574,64.8
4.575,65.0
4.5760000000000005,65.0
4.577,65.2
4.578,65.0
4.579,64.8
4.58,65.0
4.581,65.0
4.582,64.8
4.583,65.0
4.5840000000000005,64.8
4.585,65.2
4.586,64.8
4.587,65.0
4.588,64.8
4.589,65.0
4.59,64.8
4.591,65.0
4.5920000000000005,65.2
4.593,65.2
4.594,65.0
4.595,64.8
4.596,65.2
4.597,65.0
4.598,65.0
4.599,65.0
4.6000000000000005,65.0
4.601,65.0
4.602,65.0
4.603,64.8
4.604,65.0
4.605,65.0
4.606,65.2
4.607,64.8
4.6080000000000005,65.0
4.609,65.0
4.61,65.2
4.611,65.0
4.612,65.0
4.613,65.2
4.614,65.0
4.615,65.0
4.616,65.0
4.617,65.2
4.618,65.2
4.619,65.2
4.62,65.2
4.621,65.0
4.622,65.2
4.623,65.2
4.624,65.2
4.625,65.2
4.626,65.2
4.627,65.0
4.628,65.2
4.6290000000000004,64.8
4.63,65.2
4.631,65.0
4.632,65.2
4.633,65.0
4.634,65.2
4.635,65.2
4.636,65.0
4.6370000000000005,65.2
4.638,65.2
4.639,65.2
4.64,65.2
4.641,65.2
4.642,65.2
4.643,65.0
4.644,65.0
4.6450000000000005,65.0
4.646,65.4
4.647,65.0
4.648,65.2
4.649,65.4
4.65,65.4
4.651,65.2
4.652,65.2
4.6530000000000005,65.2
4.654,65.4
4.655,65.4
4.656,65.2
4.657,65.4
4.658,65.2
4.659,65.2
4.66,65.2
4.6610000000000005,65.4
4.662,65.4
4.663,65.2
4.664,65.2
4.665,65.4
4.666,65.4
4.667,65.4
4.668,65.2
4.6690000000000005,65.4
4.67,65.4
4.671,65.4
4.672,65.2
4.673,65.2
4.674,65.4
4.675,65.2
4.676,65.4
4.6770000000000005,65.4
4.678,65.2
4.679,65.4
4.68,65.2
4.681,65.4
4.682,65.2
4.683,65.4
4.684,65.6
4.6850000000000005,65.2
4.686,65.4
4.687,65.2
4.688,65.4
4.689,65.6
4.69,65.6
4.691,65.4
4.692,65.4
4.6930000000000005,65.4
4.694,65.2
4.695,65.4
4.696,65.4
4.697,65.6
4.698,65.6
4.699,65.6
4.7,65.4
4.7010000000000005,65.4
4.702,65.6
4.703,65.4
4.704,65.4
4.705,65.4
4.706,65.6
4.707,65.4
4.708,65.4
4.7090000000000005,65.8
4.71,65.6
4.711,65.8
4.712,65.6
4.713,65.6
4.714,65.6
4.715,65.4
4.716,65.6
4.7170000000000005,65.6
4.718,65.8
4.719,65.6
4.72,65.6
4.721,65.8
4.722,65.8
4.723,65.8
4.724,65.8
4.7250000000000005,65.6
4.726,65.6
4.727,65.8
4.728,65.2
4.729,65.8
4.73,65.6
4.731,65.8
4.732,65.6
4.7330000000000005,65.8
4.734,65.8
4.735,65.8
4.736,65.6
4.737,65.8
4.738,65.8
4.739,66.0
4.74,65.8
4.741,65.6
4.742,65.6
4.743,65.6
4.744,65.8
4.745,65.8
4.746,65.6
4.747,65.8
4.748,65.8
4.749,65.8
4.75,65.8
4.751,65.6
4.752,65.6
4.753,65.6
4.7540000000000004,65.8
4.755,65.8
4.756,65.8
4.757,65.8
4.758,65.6
4.759,66.0
4.76,65.8
4.761,65.8
4.7620000000000005,65.8
4.763,65.8
4.764,66.0
4.765,65.8
4.766,65.8
4.767,65.8
4.768,66.0
4.769,65.8
4.7700000000000005,66.0
4.771,65.6
4.772,65.8
4.773,65.8
4.774,66.0
4.775,66.0
4.776,65.8
4.777,65.8
4.7780000000000005,65.6
4.779,66.0
4.78,66.0
4.781,65.8
4.782,65.8
4.783,66.0
4.784,66.0
4.785,65.8
4.7860000000000005,65.8
4.787,65.8
4.788,66.0
4.789,66.0
4.79,66.0
4.791,66.0
4.792,66.0
4.793,65.8
4.7940000000000005,66.0
4.795,66.0
4.796,65.8
4.797,66.2
4.798,65.8
4.799,65.8
4.8,66.0
4.801,66.0
4.8020000000000005,66.0
4.803,66.0
4.804,66.2
4.805,65.8
4.806,66.0
4.807,66.2
4.808,66.0
4.809,66.0
4.8100000000000005,66.2
4.811,66.2
4.812,65.8
4.813,66.0
4.814,66.0
4.815,66.2
4.816,66.2
4.817,66.2
4.8180000000000005,66.4
4.819,66.2
4.82,66.2
4.821,66.4
4.822,66.2
4.823,66.0
4.824,66.4
4.825,66.4
4.8260000000000005,66.2
4.827,66.0
4.828,66.2
4.829,66.4
4.83,66.4
4.831,66.2
4.832,66.4
4.833,66.4
4.8340000000000005,66.2
4.835,66.2
4.836,66.4
4.837,66.4
4.838,66.4
4.839,66.2
4.84,66.2
4.841,66.2
4.8420000000000005,66.2
4.843,66.4
4.844,66.4
4.845,66.2
4.846,66.2
4.847,66.6
4.848,66.2
4.849,66.4
4.8500000000000005,66.2
4.851,66.2
4.852,66.2
4.853,66.4
4.854,66.4
4.855,66.4
4.856,66.6
4.857,66.4
4.8580000000000005,66.4
4.859,66.4
4.86,66.4
4.861,66.6
4.862,66.2
4.863,66.4
4.864,66.6
4.865,66.4
4.866,66.4
4.867,66.4
4.868,66.4
4.869,66.6
4.87,66.4
4.871,66.4
4.872,66.4
4.873,66.4
4.874,66.4
4.875,66.4
4.876,66.6
4.877,66.4
4.878,66.4
4.8790000000000004,66.4
4.88,66.6
4.881,66.6
4.882,66.6
4.883,66.4
4.884,66.6
4.885,66.6
4.886,66.8
4.8870000000000005,66.6
4.888,66.6
4.889,66.6
4.89,66.4
4.891,66.6
4.892,66.6
4.893,66.6
4.894,66.6
4.8950000000000005,66.6
4.896,66.6
4.897,66.4
4.898,66.6
4.899,66.6
4.9,66.6
4.901,66.8
4.902,66.6
4.9030000000000005,66.8
4.904,66.6
4.905,66.6
4.906,66.8
4.907,66.8
4.908,66.6
4.909,66.8
4.91,66.8
4.9110000000000005,66.8
4.912,66.8
4.913,66.8
4.914,66.8
4.915,66.8
4.916,66.8
4.917,66.8
4.918,66.8
4.9190000000000005,66.6
4.92,66.8
4.921,66.8
4.922,66.8
4.923,66.8
4.924,66.8
4.925,66.8
4.926,66.8
4.9270000000000005,67.0
4.928,66.8
4.929,66.8
4.93,66.8
4.931,66.8
4.932,67.0
4.933,66.8
4.934,66.8
4.9350000000000005,67.0
4.936,66.8
4.937,67.0
4.938,67.0
4.939,67.2
4.94,66.8
4.941,66.8
4.942,67.0
4.9430000000000005,67.0
4.944,67.0
4.945,67.0
4.946,67.2
4.947,67.0
4.948,67.0
4.949,66.8
4.95,67.2
4.9510000000000005,67.2
4.952,67.0
4.953,66.8
4.954,67.0
4.955,67.0
4.956,67.0
4.957,67.2
4.958,67.0
4.9590000000000005,67.2
4.96,67.0
4.961,66.8
4.962,67.2
4.963,67.2
4.964,67.0
4.965,67.2
4.966,67.2
4.9670000000000005,67.0
4.968,67.2
4.969,67.2
4.97,67.2
4.971,67.2
4.972,67.2
4.973,67.4
4.974,67.2
4.9750000000000005,67.2
4.976,67.2
4.977,67.2
4.978,67.2
4.979,67.2
4.98,67.2
4.981,67.2
4.982,67.2
4.9830000000000005,67.4
4.984,67.2
4.985,67.2
4.986,67.2
4.987,67.2
4.988,67.2
4.989,67.2
4.99,67.4
4.9910000000000005,67.2
4.992,67.4
4.993,67.4
4.994,67.4
4.995,67.4
4.996,67.2
4.997,67.2
4.998,67.2
4.999,67.4
5.0,67.4
5.001,67.2
5.002,67.4
5.003,67.4
5.0040000000000004,67.2
5.005,67.4
5.006,67.4
5.007,67.2
5.008,67.4
5.009,67.6
5.01,67.4
5.011,67.4
5.0120000000000005,67.4
5.013,67.6
5.014,67.4
5.015,67.6
5.016,67.4
5.017,67.4
5.018,67.6
5.019,67.4
5.0200000000000005,67.6
5.021,67.6
5.022,67.4
5.023,67.4
5.024,67.4
5.025,67.4
5.026,67.6
5.027,67.4
5.0280000000000005,67.6
5.029,67.6
5.03,67.6
5.031,67.6
5.032,67.6
5.033,67.6
5.034,67.6
5.035,67.6
5.0360000000000005,67.6
5.037,67.6
5.038,67.6
5.039,67.6
5.04,67.6
5.041,67.8
5.042,67.6
5.043,67.4
5.0440000000000005,67.8
5.045,67.8
5.046,67.8
5.047,67.6
5.048,67.4
5.049,67.6
5.05,67.6
5.051,67.8
5.0520000000000005,67.8
5.053,67.8
5.054,67.8
5.055,67.8
5.056,68.0
5.057,67.8
5.058,68.0
5.059,68.0
5.0600000000000005,67.8
5.061,67.8
5.062,67.8
5.063,67.8
5.064,67.8
5.065,67.8
5.066,68.0
5.067,68.0
5.0680000000000005,67.8
5.069,67.8
5.07,67.8
5.071,68.0
5.072,68.0
5.073,68.0
5.074,68.0
5.075,67.8
5.0760000000000005,68.0
5.077,68.0
5.078,68.0
5.079,67.8
5.08,68.0
5.081,67.8
5.082,67.8
5.083,68.0
5.0840000000000005,67.8
5.085,68.0
5.086,68.0
5.087,68.2
5.088,68.2
5.089,68.0
5.09,67.8
5.091,68.0
5.0920000000000005,68.0
5.093,68.0
5.094,68.0
5.095,68.0
5.096,67.8
5.097,68.0
5.098,68.2
5.099,68.0
5.1000000000000005,68.0
5.101,68.2
5.102,68.0
5.103,68.2
5.104,68.2
5.105,68.0
5.106,68.0
5.107,68.2
5.1080000000000005,68.2
5.109,67.8
5.11,68.2
5.111,68.2
5.112,68.2
5.113,68.2
5.114,68.2
5.115,68.2
5.1160000000000005,68.2
5.117,68.2
5.118,68.2
5.119,68.2
5.12,68.0
5.121,68.2
5.122,68.2
5.123,68.2
5.124,68.2
5.125,68.2
5.126,68.2
5.127,68.4
5.128,68.2
5.1290000000000004,68.4
5.13,68.4
5.131,68.2
5.132,68.2
5.133,68.4
5.134,68.4
5.135,68.4
5.136,68.2
5.1370000000000005,68.2
5.138,68.2
5.139,68.2
5.14,68.2
5.141,68.4
5.142,68.4
5.143,68.4
5.144,68.4
5.1450000000000005,68.4
5.146,68.4
5.147,68.4
5.148,68.4
5.149,68.6
5.15,68.2
5.151,68.6
5.152,68.4
5.1530000000000005,68.4
5.154,68.4
5.155,68.4
5.156,68.6
5.157,68.4
5.158,68.4
5.159,68.2
5.16,68.4
5.1610000000000005,68.6
5.162,68.4
5.163,68.6
5.164,68.4
5.165,68.4
5.166,68.6
5.167,68.4
5.168,68.6
5.1690000000000005,68.4
5.17,68.6
5.171,68.6
5.172,68.6
5.173,68.6
5.174,68.6
5.175,68.6
5.176,68.6
5.1770000000000005,68.6
5.178,68.8
5.179,68.8
5.18,68.6
5.181,68.4
5.182,68.8
5.183,68.6
5.184,68.6
5.1850000000000005,68.6
5.186,68.6
5.187,68.6
5.188,69.0
5.189,68.8
5.19,68.8
5.191,68.8
5.192,68.6
5.1930000000000005,68.6
5.194,68.8
5.195,68.6
5.196,68.8
5.197,68.8
5.198,68.6
5.199,68.6
5.2,68.8
5.2010000000000005,68.8
5.202,68.8
5.203,68.6
5.204,68.8
5.205,68.8
5.206,68.8
5.207,68.8
5.208,68.8
5.2090000000000005,68.8
5.21,68.8
5.211,68.8
5.212,68.8
5.213,68.8
5.214,69.0
5.215,68.6
5.216,68.8
5.2170000000000005,68.8
5.218,68.8
5.219,68.8
5.22,68.8
5.221,68.8
5.222,68.8
5.223,68.8
5.224,68.8
5.2250000000000005,68.8
5.226,69.0
5.227,69.0
5.228,69.0
5.229,68.8
5.23,69.0
5.231,69.0
5.232,68.8
5.2330000000000005,69.0
5.234,68.8
5.235,68.8
5.236,69.0
5.237,68.8
5.238,69.2
5.239,69.0
5.24,69.0
5.2410000000000005,69.0
5.242,69.0
5.243,69.0
5.244,69.2
5.245,69.2
5.246,69.0
5.247,69.2
5.248,69.0
5.249,69.0
5.25,69.0
5.251,69.0
5.252,69.0
5.253,69.2
5.2540000000000004,69.2
5.255,69.2
5.256,69.0
5.257,69.2
5.258,69.0
5.259,69.0
5.26,69.2
5.261,69.2
5.2620000000000005,69.2
5.263,69.2
5.264,69.0
5.265,69.0
5.266,69.2
5.267,69.2
5.268,69.2
5.269,69.2
5.2700000000000005,69.2
5.271,69.2
5.272,69.2
5.273,69.4
5.274,69.2
5.275,69.2
5.276,69.4
5.277,69.2
5.2780000000000005,69.2
5.279,69.2
5.28,69.2
5.281,69.2
5.282,69.2
5.283,69.2
5.284,69.2
5.285,69.2
5.2860000000000005,69.6
5.287,69.4
5.288,69.4
5.289,69.4
5.29,69.4
5.291,69.4
5.292,69.4
5.293,69.2
5.2940000000000005,69.2
5.295,69.6
5.296,69.6
5.297,69.4
5.298,69.4
5.299,69.2
5.3,69.2
5.301,69.4
5.3020000000000005,69.4
5.303,69.6
5.304,69.2
5.305,69.6
5.306,69.4
5.307,69.4
5.308,69.2
5.309,69.6
5.3100000000000005,69.6
5.311,69.6
5.312,69.6
5.313,69.6
5.314,69.4
5.315,69.6
5.316,69.6
5.317,69.6
5.3180000000000005,69.6
5.319,69.8
5.32,69.6
5.321,69.8
5.322,69.6
5.323,69.6
5.324,69.6
5.325,69.8
5.3260000000000005,69.6
5.327,69.6
5.328,69.8
5.329,69.8
5.33,69.4
5.331,69.8
5.332,69.6
5.333,69.6
5.3340000000000005,69.8
5.335,69.6
5.336,69.6
5.337,69.6
5.338,69.8
5.339,69.6
5.34,69.6
5.341,69.6
5.3420000000000005,69.8
5.343,69.8
5.344,69.8
5.345,69.6
5.346,69.8
5.347,69.8
5.348,69.6
5.349,70.0
5.3500000000000005,69.8
5.351,69.8
5.352,69.6
5.353,69.8
5.354,69.8
5.355,70.0
5.356,70.0
5.357,70.0
5.3580000000000005,69.8
5.359,69.8
5.36,69.8
5.361,69.6
5.362,70.0
5.363,70.0
5.364,70.0
5.365,69.8
5.3660000000000005,69.8
5.367,69.8
5.368,70.2
5.369,70.0
5.37,70.0
5.371,69.8
5.372,70.0
5.373,69.8
5.3740000000000006,70.0
5.375,70.0
5.376,70.0
5.377,70.0
5.378,70.0
5.3790000000000004,70.2
5.38,69.8
5.381,70.0
5.382,70.0
5.383,70.0
5.384,70.0
5.385,70.0
5.386,70.2
5.3870000000000005,70.0
5.388,70.0
5.389,70.0
5.39,70.2
5.391,70.0
5.392,70.2
5.393,70.0
5.394,70.2
5.3950000000000005,70.4
5.396,70.2
5.397,69.8
5.398,70.2
5.399,70.2
5.4,70.2
5.401,70.2
5.402,70.2
5.4030000000000005,70.0
5.404,70.4
5.405,70.4
5.406,70.2
5.407,70.0
5.408,70.2
5.409,70.2
5.41,70.2
5.4110000000000005,70.2
5.412,70.4
5.413,70.2
5.414,70.4
5.415,70.4
5.416,70.2
5.417,70.4
5.418,70.4
5.4190000000000005,70.4
5.42,70.4
5.421,70.2
5.422,70.4
5.423,70.2
5.424,70.4
5.425,70.4
5.426,70.4
5.4270000000000005,70.2
5.428,70.4
5.429,70.2
5.43,70.2
5.431,70.4
5.432,70.4
5.433,70.4
5.434,70.4
5.4350000000000005,70.2
5.436,70.2
5.437,70.6
5.438,70.4
5.439,70.4
5.44,70.4
5.441,70.4
5.442,70.6
5.4430000000000005,70.6
5.444,70.4
5.445,70.6
5.446,70.2
5.447,70.4
5.448,70.4
5.449,70.4
5.45,70.6
5.4510000000000005,70.2
5.452,70.6
5.453,70.6
5.454,70.6
5.455,70.6
5.456,70.4
5.457,70.6
5.458,70.4
5.4590000000000005,70.4
5.46,70.4
5.461,70.6
5.462,70.6
5.463,70.6
5.464,70.4
5.465,70.4
5.466,70.4
5.4670000000000005,70.6
5.468,70.6
5.469,70.6
5.47,70.6
5.471,70.4
5.472,70.6
5.473,70.4
5.474,70.4
5.4750000000000005,70.8
5.476,70.6
5.477,70.4
5.478,70.6
5.479,70.6
5.48,70.8
5.481,70.6
5.482,70.6
5.4830000000000005,70.8
5.484,70.8
5.485,70.8
5.486,70.4
5.487,70.8
5.488,70.6
5.489,70.6
5.49,70.8
5.4910000000000005,70.8
5.492,70.6
5.493,70.6
5.494,70.8
5.495,70.8
5.496,70.4
5.497,70.8
5.498,70.6
5.4990000000000006,70.6
5.5,71.0
5.501,70.8
5.502,70.6
5.503,71.0
5.5040000000000004,70.8
5.505,70.6
5.506,70.6
5.507,70.8
5.508,70.8
5.509,70.8
5.51,70.8
5.511,71.0
5.5120000000000005,70.8
5.513,71.0
5.514,71.0
5.515,71.0
5.516,71.0
5.517,70.8
5.518,70.8
5.519,70.8
5.5200000000000005,70.8
5.521,70.8
5.522,70.8
5.523,70.8
5.524,71.0
5.525,71.0
5.526,71.0
5.527,71.0
5.5280000000000005,71.0
5.529,71.0
5.53,71.0
5.531,71.0
5.532,70.8
5.533,70.8
5.534,70.8
5.535,70.8
5.5360000000000005,71.0
5.537,71.0
5.538,70.8
5.539,71.0
5.54,71.0
5.541,70.8
5.542,71.0
5.543,71.0
5.5440000000000005,70.8
5.545,71.0
5.546,71.0
5.547,71.0
5.548,71.2
5.549,71.0
5.55,71.0
5.551,71.0
5.5520000000000005,71.2
5.553,71.2
5.554,71.2
5.555,71.0
5.556,71.0
5.557,71.0
5.558,71.0
5.559,71.2
5.5600000000000005,71.2
5.561,71.2
5.562,71.2
5.563,71.0
5.564,71.2
5.565,71.2
5.566,71.0
5.567,71.4
5.5680000000000005,71.2
5.569,71.2
5.57,71.2
5.571,71.2
5.572,71.2
5.573,71.2
5.574,70.8
5.575,71.4
5.5760000000000005,71.4
5.577,71.2
5.578,71.0
5.579,71.2
5.58,71.0
5.581,71.2
5.582,71.4
5.583,71.4
5.5840000000000005,71.2
5.585,71.2
5.586,71.2
5.587,71.2
5.588,71.2
5.589,71.2
5.59,71.2
5.591,71.2
5.5920000000000005,71.2
5.593,71.4
5.594,71.2
5.595,71.2
5.596,71.4
5.597,71.2
5.598,71.2
5.599,71.6
5.6000000000000005,71.4
5.601,71.2
5.602,71.2
5.603,71.4
5.604,71.2
5.605,71.2
5.606,71.2
5.607,71.4
5.6080000000000005,71.2
5.609,71.4
5.61,71.4
5.611,71.2
5.612,71.4
5.613,71.4
5.614,71.4
5.615,71.4
5.6160000000000005,71.4
5.617,71.4
5.618,71.6
5.619,71.2
5.62,71.2
5.621,71.2
5.622,71.4
5.623,71.4
5.6240000000000006,71.4
5.625,71.4
5.626,71.6
5.627,71.4
5.628,71.6
5.6290000000000004,71.6
5.63,71.6
5.631,71.4
5.632,71.4
5.633,71.4
5.634,71.4
5.635,71.6
5.636,71.6
5.6370000000000005,71.4
5.638,71.2
5.639,71.6
5.64,71.6
5.641,71.6
5.642,71.4
5.643,71.6
5.644,71.4
5.6450000000000005,71.4
5.646,71.6
5.647,71.6
5.648,71.6
5.649,71.6
5.65,71.4
5.651,71.4
5.652,71.8
5.6530000000000005,71.8
5.654,71.4
5.655,71.6
5.656,71.6
5.657,71.4
5.658,71.4
5.659,71.6
5.66,71.6
5.6610000000000005,72.0
5.662,71.4
5.663,71.6
5.664,71.4
5.665,72.0
5.666,71.6
5.667,71.4
5.668,71.4
5.6690000000000005,71.6
5.67,71.8
5.671,71.6
5.672,71.6
5.673,71.8
5.674,72.0
5.675,71.8
5.676,71.8
5.6770000000000005,71.8
5.678,71.8
5.679,71.6
5.68,72.0
5.681,72.0
5.682,71.8
5.683,72.0
5.684,71.4
5.6850000000000005,71.8
5.686,71.6
5.687,71.6
5.688,72.0
5.689,71.8
5.69,71.6
5.691,71.6
5.692,71.8
5.6930000000000005,71.8
5.694,71.8
5.695,72.0
5.696,71.8
5.697,71.8
5.698,72.0
5.699,72.0
5.7,71.4
5.7010000000000005,72.0
5.702,72.0
5.703,71.8
5.704,71.6
5.705,71.8
5.706,72.0
5.707,71.8
5.708,72.0
5.7090000000000005,72.0
5.71,71.8
5.711,72.0
5.712,72.0
5.713,71.8
5.714,72.0
5.715,72.0
5.716,72.0
5.7170000000000005,72.0
5.718,71.8
5.719,72.0
5.72,71.8
5.721,72.0
5.722,71.8
5.723,72.0
5.724,72.0
5.7250000000000005,72.0
5.726,71.8
5.727,72.0
5.728,72.0
5.729,72.0
5.73,72.2
5.731,72.0
5.732,71.8
5.7330000000000005,72.0
5.734,72.0
5.735,72.0
5.736,72.0
5.737,71.8
5.738,72.0
5.739,72.0
5.74,72.0
5.7410000000000005,71.8
5.742,72.0
5.743,71.8
5.744,71.8
5.745,72.2
5.746,72.0
5.747,72.0
5.748,72.0
5.7490000000000006,72.0
5.75,72.2
5.751,72.2
5.752,72.0
5.753,72.0
5.7540000000000004,72.0
5.755,71.8
5.756,72.0
5.757000000000001,72.0
5.758,72.0
5.759,72.0
5.76,72.2
5.761,71.8
5.7620000000000005,72.0
5.763,72.0
5.764,72.2
5.765,72.0
5.766,72.2
5.767,71.8
5.768,72.0
5.769,72.0
5.7700000000000005,72.2
5.771,72.0
5.772,72.0
5.773,72.2
5.774,72.2
5.775,72.2
5.776,72.0
5.777,72.0
5.7780000000000005,72.2
5.779,72.2
5.78,72.2
5.781,72.2
5.782,72.4
5.783,72.0
5.784,72.4
5.785,72.0
5.7860000000000005,72.2
5.787,72.0
5.788,72.2
5.789,72.0
5.79,72.0
5.791,72.4
5.792,72.0
5.793,72.4
5.7940000000000005,72.2
5.795,72.2
5.796,72.2
5.797,72.4
5.798,72.2
5.799,72.2
5.8,72.4
5.801,72.4
5.8020000000000005,72.0
5.803,72.2
5.804,72.0
5.805,72.4
5.806,72.2
5.807,72.2
5.808,72.4
5.809,72.4
5.8100000000000005,72.2
5.811,72.2
5.812,72.4
5.813,72.4
5.814,72.2
5.815,72.2
5.816,72.4
5.817,72.0
5.8180000000000005,72.4
5.819,72.4
5.82,72.4
5.821,72.2
5.822,72.4
5.823,72.4
5.824,72.4
5.825,72.2
5.8260000000000005,72.2
5.827,72.4
5.828,72.4
5.829,72.4
5.83,72.2
5.831,72.2
5.832,72.2
5.833,72.4
5.8340000000000005,72.2
5.835,72.4
5.836,72.2
5.837,72.2
5.838,72.4
5.839,72.4
5.84,72.4
5.841,72.4
5.8420000000000005,72.4
5.843,72.4
5.844,72.4
5.845,72.4
5.846,72.4
5.847,72.2
5.848,72.4
5.849,72.4
5.8500000000000005,72.6
5.851,72.4
5.852,72.2
5.853,72.4
5.854,72.2
5.855,72.4
5.856,72.4
5.857,72.4
5.8580000000000005,72.4
5.859,72.6
5.86,72.2
5.861,72.4
5.862,72.4
5.863,72.4
5.864,72.4
5.865,72.6
5.8660000000000005,72.4
5.867,72.4
5.868,72.4
5.869,72.4
5.87,72.4
5.871,72.4
5.872,72.4
5.873,72.4
5.8740000000000006,72.2
5.875,72.4
5.876,72.6
5.877,72.6
5.878,72.6
5.8790000000000004,72.6
5.88,72.4
5.881,72.6
5.882000000000001,72.2
5.883,72.6
5.884,72.4
5.885,72.6
5.886,72.4
5.8870000000000005,72.4
5.888,72.4
5.889,72.6
5.89,72.6
5.891,72.6
5.892,72.4
5.893,72.8
5.894,72.4
5.8950000000000005,72.4
5.896,72.8
5.897,72.4
5.898,72.4
5.899,72.6
5.9,72.6
5.901,72.6
5.902,72.6
5.9030000000000005,72.6
5.904,72.6
5.905,72.4
5.906,72.6
5.907,72.6
5.908,72.4
5.909,72.6
5.91,72.8
5.9110000000000005,72.6
5.912,72.6
5.913,72.4
5.914,72.6
5.915,72.6
5.916,72.4
5.917,72.8
5.918,72.6
5.9190000000000005,72.8
5.92,72.6
5.921,72.6
5.922,72.6
5.923,72.8
5.924,72.8
5.925,72.6
5.926,72.6
5.9270000000000005,72.6
5.928,72.6
5.929,72.6
5.93,72.4
5.931,72.4
5.932,72.8
5.933,72.8
5.934,72.4
5.9350000000000005,72.6
5.936,72.8
5.937,72.6
5.938,72.8
5.939,72.6
5.94,72.6
5.941,72.6
5.942,72.6
5.9430000000000005,72.8
5.944,72.8
5.945,72.6
5.946,72.6
5.947,72.6
5.948,72.8
5.949,72.6
5.95,72.8
5.9510000000000005,72.6
5.952,72.8
5.953,72.8
5.954,72.4
5.955,72.6
5.956,72.8
5.957,72.6
5.958,72.8
5.9590000000000005,72.6
5.96,72.6
5.961,72.8
5.962,72.8
5.963,72.6
5.964,72.8
5.965,72.8
5.966,72.8
5.9670000000000005,72.8
5.968,72.8
5.969,72.6
5.97,72.6
5.971,72.8
5.972,72.8
5.973,72.6
5.974,72.8
5.9750000000000005,72.8
5.976,73.0
5.977,73.0
5.978,72.8
5.979,72.8
5.98,72.8
5.981,72.6
5.982,72.8
5.9830000000000005,72.6
5.984,72.8
5.985,72.8
5.986,73.0
5.987,72.6
5.988,72.8
5.989,72.8
5.99,72.8
5.9910000000000005,72.8
5.992,72.8
5.993,72.8
5.994,72.8
5.995,72.8
5.996,72.8
5.997,72.8
5.998,72.8
5.9990000000000006,72.8
6.0,72.8
6.001,72.8
6.002,72.6
6.003,73.0
6.0040000000000004,72.8
6.005,72.8
6.006,72.8
6.007000000000001,72.6
6.008,72.8
6.009,72.8
6.01,72.8
6.011,72.6
6.0120000000000005,72.8
6.013,72.8
6.014,72.8
6.015000000000001,72.6
6.016,73.0
6.017,72.8
6.018,72.8
6.019,72.8
6.0200000000000005,72.8
6.021,72.8
6.022,72.8
6.023,72.8
6.024,73.0
6.025,73.0
6.026,73.2
6.027,72.8
6.0280000000000005,73.0
6.029,72.8
6.03,72.8
6.031,72.8
6.032,72.8
6.033,72.8
6.034,73.0
6.035,73.0
6.0360000000000005,73.0
6.037,73.0
6.038,72.8
6.039,72.8
6.04,72.6
6.041,72.8
6.042,73.0
6.043,72.8
6.0440000000000005,73.0
6.045,72.6
6.046,72.8
6.047,73.0
6.048,73.0
6.049,72.8
6.05,72.8
6.051,73.0
6.0520000000000005,72.8
6.053,72.8
6.054,72.8
6.055,73.0
6.056,73.0
6.057,73.0
6.058,72.8
6.059,73.0
6.0600000000000005,73.0
6.061,73.0
6.062,73.0
6.063,73.0
6.064,72.8
6.065,73.0
6.066,73.0
6.067,73.0
6.0680000000000005,72.6
6.069,72.8
6.07,72.8
6.071,73.0
6.072,72.8
6.073,73.0
6.074,73.0
6.075,73.0
6.0760000000000005,73.0
6.077,72.8
6.078,72.8
6.079,72.8
6.08,72.8
6.081,73.0
6.082,73.0
6.083,73.0
6.0840000000000005,73.0
6.085,73.0
6.086,72.8
6.087,73.0
6.088,72.8
6.089,72.8
6.09,72.8
6.091,73.0
6.0920000000000005,72.8
6.093,72.8
6.094,73.0
6.095,73.0
6.096,72.8
6.097,73.2
6.098,73.0
6.099,72.8
6.1000000000000005,72.8
6.101,73.0
6.102,73.2
6.103,73.0
6.104,73.0
6.105,73.0
6.106,73.0
6.107,73.0
6.1080000000000005,73.2
6.109,73.0
6.11,73.0
6.111,73.0
6.112,73.0
6.113,73.2
6.114,72.8
6.115,73.0
6.1160000000000005,72.8
6.117,73.0
6.118,73.0
6.119,73.0
6.12,73.0
6.121,73.2
6.122,73.0
6.123,73.0
6.1240000000000006,73.0
6.125,73.2
6.126,73.0
6.127,73.0
6.128,73.0
6.1290000000000004,72.8
6.13,73.0
6.131,73.0
6.132000000000001,72.8
6.133,73.0
6.134,72.8
6.135,73.0
6.136,73.2
6.1370000000000005,73.0
6.138,73.0
6.139,73.0
6.140000000000001,73.0
6.141,73.0
6.142,73.0
6.143,73.2
6.144,73.0
6.1450000000000005,73.0
6.146,73.0
6.147,73.2
6.148,73.2
6.149,73.0
6.15,73.2
6.151,73.2
6.152,73.0
6.1530000000000005,73.0
6.154,73.0
6.155,73.0
6.156,73.2
6.157,72.8
6.158,72.8
6.159,73.0
6.16,73.2
6.1610000000000005,73.2
6.162,73.2
6.163,72.8
6.164,73.0
6.165,73.2
6.166,73.2
6.167,73.0
6.168,73.0
6.1690000000000005,73.2
6.17,73.0
6.171,73.0
6.172,73.0
6.173,73.2
6.174,73.2
6.175,73.0
6.176,73.2
6.1770000000000005,73.0
6.178,73.2
6.179,72.8
6.18,73.0
6.181,73.0
6.182,73.0
6.183,73.0
6.184,73.2
6.1850000000000005,72.8
6.186,73.0
6.187,73.0
6.188,72.8
6.189,73.0
6.19,73.2
6.191,73.0
6.192,73.0
6.1930000000000005,73.4
6.194,73.0
6.195,73.0
6.196,73.2
6.197,73.2
6.198,72.8
6.199,73.0
6.2,73.0
6.2010000000000005,73.0
6.202,73.0
6.203,73.0
6.204,73.2
6.205,73.2
6.206,73.2
6.207,73.2
6.208,73.0
6.2090000000000005,73.2
6.21,73.2
6.211,73.2
6.212,73.2
6.213,72.8
6.214,73.0
6.215,73.0
6.216,73.2
6.2170000000000005,73.0
6.218,73.2
6.219,73.0
6.22,73.2
6.221,73.2
6.222,73.2
6.223,73.0
6.224,73.0
6.2250000000000005,73.0
6.226,73.0
6.227,73.0
6.228,72.8
6.229,73.2
6.23,73.0
6.231,72.8
6.232,73.0
6.2330000000000005,73.0
6.234,73.2
6.235,73.2
6.236,73.0
6.237,72.8
6.238,73.0
6.239,73.2
6.24,73.2
6.2410000000000005,73.2
6.242,73.0
6.243,73.0
6.244,73.0
6.245,73.0
6.246,73.0
6.247,73.2
6.248,73.0
6.2490000000000006,73.2
6.25,73.2
6.251,73.0
6.252,73.0
6.253,73.0
6.2540000000000004,73.0
6.255,73.0
6.256,73.0
6.257000000000001,72.8
6.258,73.0
6.259,73.0
6.26,73.0
6.261,73.2
6.2620000000000005,73.0
6.263,73.0
6.264,73.0
6.265000000000001,73.0
6.266,73.0
6.267,72.8
6.268,73.2
6.269,73.0
6.2700000000000005,72.8
6.271,73.0
6.272,73.0
6.273,73.0
6.274,73.0
6.275,73.0
6.276,73.0
6.277,73.0
6.2780000000000005,72.8
6.279,73.0
6.28,73.0
6.281,73.0
6.282,73.0
6.283,73.0
6.284,73.0
6.285,73.0
6.2860000000000005,73.0
6.287,73.0
6.288,72.8
6.289,73.0
6.29,72.8
6.291,73.0
6.292,73.0
6.293,73.0
6.2940000000000005,73.0
6.295,73.0
6.296,73.2
6.297,72.8
6.298,73.0
6.299,73.0
6.3,73.0
6.301,73.2
6.3020000000000005,73.0
6.303,73.0
6.304,73.0
6.305,73.0
6.306,73.0
6.307,73.0
6.308,73.0
6.309,73.0
6.3100000000000005,73.0
6.311,73.0
6.312,72.8
6.313,73.0
6.314,73.0
6.315,73.0
6.316,73.0
6.317,72.8
6.3180000000000005,73.0
6.319,73.0
6.32,73.0
6.321,73.0
6.322,73.0
6.323,73.4
6.324,73.2
6.325,72.8
6.3260000000000005,72.8
6.327,73.0
6.328,73.0
6.329,73.0
6.33,72.8
6.331,72.8
6.332,73.0
6.333,73.0
6.3340000000000005,73.0
6.335,72.8
6.336,72.8
6.337,72.8
6.338,73.0
6.339,73.0
6.34,73.0
6.341,73.0
6.3420000000000005,72.8
6.343,73.0
6.344,73.0
6.345,72.8
6.346,73.0
6.347,72.8
6.348,73.0
6.349,72.8
6.3500000000000005,73.0
6.351,72.8
6.352,73.0
6.353,73.0
6.354,73.0
6.355,73.0
6.356,72.8
6.357,73.0
6.3580000000000005,73.2
6.359,73.0
6.36,73.0
6.361,72.8
6.362,73.0
6.363,73.0
6.364,73.0
6.365,73.2
6.3660000000000005,72.8
6.367,73.0
6.368,72.6
6.369,72.8
6.37,72.8
6.371,72.8
6.372,72.8
6.373,73.0
6.3740000000000006,73.0
6.375,73.0
6.376,73.0
6.377,72.8
6.378,73.2
6.3790000000000004,72.8
6.38,72.8
6.381,73.0
6.382000000000001,73.0
6.383,72.6
6.384,72.8
6.385,73.0
6.386,72.8
6.3870000000000005,72.8
6.388,72.8
6.389,72.8
6.390000000000001,72.8
6.391,73.0
6.392,72.8
6.393,72.8
6.394,72.8
6.3950000000000005,73.0
6.396,72.6
6.397,72.6
6.398000000000001,72.8
6.399,73.0
6.4,72.8
6.401,73.0
6.402,72.8
6.4030000000000005,73.0
6.404,72.8
6.405,72.8
6.406,72.8
6.407,72.8
6.408,72.8
6.409,72.8
6.41,72.8
6.4110000000000005,72.8
6.412,72.8
6.413,72.8
6.414,73.0
6.415,72.8
6.416,73.0
6.417,72.8
6.418,72.8
6.4190000000000005,72.6
6.42,72.8
6.421,72.8
6.422,73.0
6.423,72.8
6.424,72.8
6.425,72.8
6.426,72.6
6.4270000000000005,72.8
6.428,73.0
6.429,72.6
6.43,72.8
6.431,72.8
6.432,72.6
6.433,72.8
6.434,72.8
6.4350000000000005,72.8
6.436,72.6
6.437,72.8
6.438,73.0
6.439,72.8
6.44,72.8
6.441,72.8
6.442,72.8
6.4430000000000005,72.8
6.444,72.8
6.445,72.6
6.446,72.8
6.447,72.8
6.448,72.8
6.449,72.6
6.45,72.6
6.4510000000000005,72.8
6.452,72.8
6.453,72.8
6.454,72.4
6.455,72.8
6.456,72.6
6.457,72.8
6.458,72.6
6.4590000000000005,73.0
6.46,72.8
6.461,72.6
6.462,73.0
6.463,72.8
6.464,72.8
6.465,72.6
6.466,73.0
6.4670000000000005,72.8
6.468,72.6
6.469,72.6
6.47,72.8
6.471,72.8
6.472,72.8
6.473,72.6
6.474,72.8
6.4750000000000005,72.8
6.476,72.6
6.477,72.6
6.478,72.6
6.479,72.8
6.48,72.6
6.481,72.6
6.482,72.4
6.4830000000000005,72.6
6.484,72.6
6.485,72.6
6.486,72.6
6.487,72.6
6.488,72.4
6.489,72.6
6.49,72.6
6.4910000000000005,72.8
6.492,72.6
6.493,72.6
6.494,72.8
6.495,72.4
6.496,72.6
6.497,72.6
6.498,72.6
6.4990000000000006,72.6
6.5,72.6
6.501,72.8
6.502,72.6
6.503,72.6
6.5040000000000004,72.6
6.505,72.6
6.506,72.6
6.507000000000001,72.6
6.508,72.6
6.509,72.6
6.51,72.4
6.511,72.6
6.5120000000000005,72.6
6.513,72.6
6.514,72.4
6.515000000000001,72.6
6.516,72.6
6.517,72.6
6.518,72.4
6.519,72.6
6.5200000000000005,72.6
6.521,72.6
6.522,72.4
6.523000000000001,72.8
6.524,72.4
6.525,72.4
6.526,72.6
6.527,72.4
6.5280000000000005,72.4
6.529,72.4
6.53,72.6
6.531,72.6
6.532,72.4
6.533,72.4
6.534,72.4
6.535,72.4
6.5360000000000005,72.2
6.537,72.6
6.538,72.4
6.539,72.6
6.54,72.4
6.541,72.4
6.542,72.4
6.543,72.6
6.5440000000000005,72.6
6.545,72.4
6.546,72.6
6.547,72.4
6.548,72.4
6.549,72.2
6.55,72.6
6.551,72.4
6.5520000000000005,72.6
6.553,72.2
6.554,72.4
6.555,72.4
6.556,72.4
6.557,72.4
6.558,72.6
6.559,72.4
6.5600000000000005,72.4
6.561,72.4
6.562,72.4
6.563,72.6
6.564,72.2
6.565,72.4
6.566,72.2
6.567,72.4
6.5680000000000005,72.4
6.569,72.4
6.57,72.4
6.571,72.4
6.572,72.2
6.573,72.4
6.574,72.4
6.575,72.2
6.5760000000000005,72.4
6.577,72.4
6.578,72.4
6.579,72.6
6.58,72.4
6.581,72.2
6.582,72.4
6.583,72.6
6.5840000000000005,72.2
6.585,72.2
6.586,72.4
6.587,72.2
6.588,72.0
6.589,72.4
6.59,72.2
6.591,72.2
6.5920000000000005,72.4
6.593,72.4
6.594,72.2
6.595,72.2
6.596,72.0
6.597,72.4
6.598,72.2
6.599,72.4
6.6000000000000005,72.2
6.601,72.4
6.602,72.6
6.603,72.4
6.604,72.4
6.605,72.4
6.606,72.4
6.607,72.2
6.6080000000000005,72.4
6.609,72.0
6.61,72.4
6.611,72.4
6.612,72.4
6.613,72.2
6.614,72.4
6.615,72.2
6.6160000000000005,72.2
6.617,72.0
6.618,72.4
6.619,72.2
6.62,72.4
6.621,72.2
6.622,72.0
6.623,72.0
6.6240000000000006,72.2
6.625,72.2
6.626,72.4
6.627,71.8
6.628,72.0
6.6290000000000004,72.2
6.63,72.2
6.631,72.4
6.632000000000001,72.0
6.633,72.0
6.634,72.0
6.635,72.0
6.636,72.0
6.6370000000000005,72.2
6.638,72.2
6.639,72.0
6.640000000000001,72.2
6.641,72.2
6.642,72.2
6.643,72.2
6.644,72.0
6.6450000000000005,72.2
6.646,72.0
6.647,72.0
6.648000000000001,72.0
6.649,72.0
6.65,72.2
6.651,72.0
6.652,72.0
6.6530000000000005,72.0
6.654,72.0
6.655,72.2
6.656000000000001,72.2
6.657,72.0
6.658,72.0
6.659,72.2
6.66,72.0
6.6610000000000005,72.2
6.662,72.0
6.663,72.0
6.664,72.2
6.665,72.0
6.666,72.0
6.667,72.0
6.668,72.0
6.6690000000000005,72.0
6.67,72.0
6.671,72.0
6.672,72.2
6.673,72.0
6.674,71.8
6.675,72.0
6.676,72.0
6.6770000000000005,72.0
6.678,72.0
6.679,72.0
6.68,71.8
6.681,72.0
6.682,72.2
6.683,72.0
6.684,71.8
6.6850000000000005,72.0
6.686,71.8
6.687,71.8
6.688,72.0
6.689,72.0
6.69,71.8
6.691,72.0
6.692,72.0
6.6930000000000005,71.8
6.694,71.8
6.695,71.8
6.696,72.0
6.697,72.0
6.698,72.0
6.699,72.0
6.7,71.8
6.7010000000000005,72.0
6.702,72.0
6.703,71.8
6.704,72.0
6.705,72.0
6.706,72.0
6.707,72.0
6.708,71.8
6.7090000000000005,72.0
6.71,71.8
6.711,72.0
6.712,71.8
6.713,71.8
6.714,72.0
6.715,72.0
6.716,71.8
6.7170000000000005,72.0
6.718,72.0
6.719,72.0
6.72,72.0
6.721,71.8
6.722,71.8
6.723,71.4
6.724,72.0
6.7250000000000005,71.8
6.726,71.8
6.727,71.8
6.728,72.0
6.729,71.6
6.73,72.0
6.731,71.8
6.732,71.8
6.7330000000000005,71.6
6.734,71.6
6.735,71.8
6.736,72.0
6.737,71.8
6.738,71.6
6.739,71.6
6.74,71.6
6.7410000000000005,71.8
6.742,71.8
6.743,71.6
6.744,72.0
6.745,71.6
6.746,71.6
6.747,71.6
6.748,71.6
6.7490000000000006,71.6
6.75,71.6
6.751,71.6
6.752,71.6
6.753,71.6
6.7540000000000004,71.6
6.755,71.6
6.756,71.6
6.757000000000001,71.6
6.758,71.4
6.759,71.4
6.76,71.8
6.761,71.6
6.7620000000000005,71.6
6.763,71.6
6.764,71.6
6.765000000000001,71.8
6.766,71.4
6.767,71.6
6.768,71.8
6.769,71.6
6.7700000000000005,71.6
6.771,71.8
6.772,71.6
6.773000000000001,71.4
6.774,71.6
6.775,71.6
6.776,71.6
6.777,71.4
6.7780000000000005,71.6
6.779,71.4
6.78,71.4
6.781000000000001,71.6
6.782,71.4
6.783,71.4
6.784,71.4
6.785,71.4
6.7860000000000005,71.4
6.787,71.6
6.788,71.6
6.789,71.4
6.79,71.6
6.791,71.4
6.792,71.2
6.793,71.4
6.7940000000000005,71.4
6.795,71.6
6.796,71.4
6.797,71.2
6.798,71.4
6.799,71.4
6.8,71.2
6.801,71.4
6.8020000000000005,71.2
6.803,71.6
6.804,71.2
6.805,71.2
6.806,71.4
6.807,71.2
6.808,71.2
6.809,71.4
6.8100000000000005,71.4
6.811,71.4
6.812,71.2
6.813,71.4
6.814,71.4
6.815,71.2
6.816,71.4
6.817,71.4
6.8180000000000005,71.2
6.819,71.4
6.82,71.2
6.821,71.2
6.822,71.0
6.823,71.4
6.824,71.4
6.825,71.0
6.8260000000000005,71.0
6.827,71.4
6.828,71.2
6.829,71.2
6.83,71.0
6.831,71.2
6.832,71.4
6.833,71.2
6.8340000000000005,71.2
6.835,71.2
6.836,71.2
6.837,71.0
6.838,71.0
6.839,71.2
6.84,71.2
6.841,71.4
6.8420000000000005,71.0
6.843,71.2
6.844,71.0
6.845,71.0
6.846,71.0
6.847,71.0
6.848,71.2
6.849,71.0
6.8500000000000005,71.0
6.851,71.0
6.852,71.0
6.853,71.2
6.854,71.0
6.855,71.2
6.856,70.8
6.857,71.0
6.8580000000000005,71.2
6.859,71.0
6.86,71.0
6.861,70.8
6.862,71.0
6.863,71.0
6.864,71.0
6.865,71.0
6.8660000000000005,71.0
6.867,71.0
6.868,71.0
6.869,71.0
6.87,71.2
6.871,71.2
6.872,70.8
6.873,71.0
6.8740000000000006,70.8
6.875,71.0
6.876,71.0
6.877,71.0
6.878,70.6
6.8790000000000004,71.0
6.88,71.0
6.881,70.8
6.882000000000001,70.6
6.883,71.0
6.884,70.8
6.885,70.8
6.886,71.0
6.8870000000000005,71.0
6.888,70.6
6.889,71.0
6.890000000000001,70.8
6.891,70.8
6.892,70.8
6.893,70.8
6.894,70.8
6.8950000000000005,71.0
6.896,70.8
6.897,70.8
6.898000000000001,70.8
6.899,71.0
6.9,70.8
6.901,70.8
6.902,70.8
6.9030000000000005,70.8
6.904,70.8
6.905,70.8
6.906000000000001,70.8
6.907,70.8
6.908,70.8
6.909,70.8
6.91,70.8
6.9110000000000005,70.8
6.912,70.8
6.913,70.8
6.914,70.6
6.915,70.8
6.916,70.8
6.917,70.8
6.918,70.6
6.9190000000000005,70.8
6.92,70.6
6.921,70.6
6.922,70.8
6.923,70.8
6.924,70.8
6.925,70.6
6.926,70.8
6.9270000000000005,70.6
6.928,70.6
6.929,70.4
6.93,70.6
6.931,70.6
6.932,70.6
6.933,70.6
6.934,70.8
6.9350000000000005,70.6
6.936,70.6
6.937,70.6
6.938,70.6
6.939,70.8
6.94,70.6
6.941,70.6
6.942,70.6
6.9430000000000005,70.6
6.944,70.6
6.945,70.6
6.946,70.6
6.947,70.6
6.948,70.6
6.949,70.4
6.95,70.4
6.9510000000000005,70.4
6.952,70.6
6.953,70.6
6.954,70.6
6.955,70.4
6.956,70.2
6.957,70.4
6.958,70.6
6.9590000000000005,70.4
6.96,70.4
6.961,70.6
6.962,70.4
6.963,70.4
6.964,70.6
6.965,70.6
6.966,70.6
6.9670000000000005,70.4
6.968,70.6
6.969,70.4
6.97,70.4
6.971,70.2
6.972,70.4
6.973,70.4
6.974,70.6
6.9750000000000005,70.4
6.976,70.4
6.977,70.2
6.978,70.2
6.979,70.6
6.98,70.4
6.981,70.4
6.982,70.4
6.9830000000000005,70.2
6.984,70.2
6.985,70.4
6.986,70.4
6.987,70.0
6.988,70.2
6.989,70.4
6.99,70.2
6.9910000000000005,70.2
6.992,70.2
6.993,70.4
6.994,70.2
6.995,70.4
6.996,70.4
6.997,70.4
6.998,70.4
6.9990000000000006,70.4
7.0,70.2
7.001,70.4
7.002,70.2
7.003,70.4
7.0040000000000004,70.4
7.005,70.2
7.006,70.4
7.007000000000001,70.2
7.008,70.4
7.009,70.2
7.01,70.2
7.011,70.0
7.0120000000000005,70.4
7.013,70.2
7.014,70.4
7.015000000000001,70.2
7.016,70.0
7.017,70.4
7.018,70.0
7.019,70.0
7.0200000000000005,70.2
7.021,70.0
7.022,70.0
7.023000000000001,70.0
7.024,70.0
7.025,70.0
7.026,70.0
7.027,70.0
7.0280000000000005,69.8
7.029,70.0
7.03,70.0
7.031000000000001,70.0
7.032,70.0
7.033,70.0
7.034,70.4
7.035,70.0
7.0360000000000005,70.0
7.037,70.2
7.038,70.0
7.039000000000001,70.0
7.04,70.0
7.041,70.0
7.042,69.8
7.043,70.0
7.0440000000000005,69.8
7.045,70.0
7.046,70.0
7.047,70.0
7.048,69.8
7.049,69.8
7.05,69.8
7.051,70.0
7.0520000000000005,70.0
7.053,70.0
7.054,69.8
7.055,69.6
7.056,69.8
7.057,69.8
7.058,69.6
7.059,69.8
7.0600000000000005,70.0
7.061,69.8
7.062,69.6
7.063,69.6
7.064,70.0
7.065,69.8
7.066,70.0
7.067,70.0
7.0680000000000005,69.8
7.069,69.8
7.07,69.8
7.071,69.8
7.072,69.8
7.073,69.8
7.074,69.8
7.075,69.8
7.0760000000000005,69.4
7.077,69.6
7.078,69.8
7.079,69.8
7.08,69.6
7.081,69.8
7.082,69.6
7.083,69.6
7.0840000000000005,69.8
7.085,69.4
7.086,69.6
7.087,69.6
7.088,69.8
7.089,69.4
7.09,69.4
7.091,69.6
7.0920000000000005,69.6
7.093,69.6
7.094,69.6
7.095,69.6
7.096,69.6
7.097,69.6
7.098,69.8
7.099,69.6
7.1000000000000005,69.6
7.101,69.6
7.102,69.6
7.103,69.6
7.104,69.4
7.105,69.6
7.106,69.4
7.107,69.6
7.1080000000000005,69.4
7.109,69.6
7.11,69.4
7.111,69.4
7.112,69.4
7.113,69.4
7.114,69.4
7.115,69.4
7.1160000000000005,69.4
7.117,69.2
7.118,69.4
7.119,69.4
7.12,69.6
7.121,69.4
7.122,69.4
7.123,69.4
7.1240000000000006,69.4
7.125,69.4
7.126,69.2
7.127,69.2
7.128,69.2
7.1290000000000004,69.2
7.13,69.2
7.131,69.4
7.132000000000001,69.4
7.133,69.2
7.134,69.2
7.135,69.2
7.136,69.2
7.1370000000000005,69.2
7.138,69.2
7.139,69.2
7.140000000000001,69.2
7.141,69.2
7.142,69.2
7.143,69.0
7.144,69.2
7.1450000000000005,69.0
7.146,69.0
7.147,69.2
7.148000000000001,69.2
7.149,69.2
7.15,69.2
7.151,69.2
7.152,69.0
7.1530000000000005,69.2
7.154,69.0
7.155,69.2
7.156000000000001,69.0
7.157,69.2
7.158,69.2
7.159,69.2
7.16,69.2
7.1610000000000005,69.0
7.162,68.8
7.163,69.2
7.164000000000001,69.0
7.165,69.2
7.166,69.0
7.167,69.0
7.168,69.0
7.1690000000000005,68.8
7.17,69.0
7.171,69.0
7.172,69.2
7.173,69.0
7.174,68.8
7.175,68.8
7.176,69.0
7.1770000000000005,69.0
7.178,68.8
7.179,68.8
7.18,69.0
7.181,69.0
7.182,69.0
7.183,68.8
7.184,69.0
7.1850000000000005,69.0
7.186,69.0
7.187,68.8
7.188,68.8
7.189,69.0
7.19,69.0
7.191,68.8
7.192,68.8
7.1930000000000005,68.8
7.194,69.0
7.195,68.8
7.196,68.8
7.197,68.8
7.198,68.8
7.199,69.0
7.2,68.8
7.2010000000000005,68.8
7.202,68.8
7.203,68.8
7.204,68.8
7.205,68.6
7.206,69.0
7.207,68.8
7.208,68.6
7.2090000000000005,68.6
7.21,68.8
7.211,68.8
7.212,68.8
7.213,68.6
7.214,68.6
7.215,68.6
7.216,68.4
7.2170000000000005,68.8
7.218,68.8
7.219,68.8
7.22,68.8
7.221,68.6
7.222,68.6
7.223,68.6
7.224,68.6
7.2250000000000005,68.6
7.226,68.4
7.227,68.8
7.228,68.6
7.229,68.8
7.23,68.8
7.231,68.4
7.232,68.6
7.2330000000000005,68.6
7.234,68.6
7.235,68.6
7.236,68.6
7.237,68.8
7.238,68.4
7.239,68.4
7.24,68.6
7.2410000000000005,68.4
7.242,68.4
7.243,68.4
7.244,68.4
7.245,68.4
7.246,68.4
7.247,68.4
7.248,68.4
7.2490000000000006,68.4
7.25,68.4
7.251,68.4
7.252,68.4
7.253,68.4
7.2540000000000004,68.4
7.255,68.4
7.256,68.4
7.257000000000001,68.4
7.258,68.4
7.259,68.2
7.26,68.6
7.261,68.2
7.2620000000000005,68.4
7.263,68.2
7.264,68.4
7.265000000000001,68.2
7.266,68.2
7.267,68.4
7.268,68.2
7.269,68.2
7.2700000000000005,68.2
7.271,68.2
7.272,68.4
7.273000000000001,68.4
7.274,68.0
7.275,68.4
7.276,68.4
7.277,68.4
7.2780000000000005,68.2
7.279,68.4
7.28,68.2
7.281000000000001,68.2
7.282,68.2
7.283,68.2
7.284,68.2
7.285,68.2
7.2860000000000005,68.4
7.287,68.0
7.288,68.0
7.289000000000001,68.2
7.29,68.0
7.291,68.0
7.292,68.0
7.293,68.2
7.2940000000000005,68.0
7.295,68.2
7.296,68.2
7.297,67.8
7.298,68.2
7.299,68.2
7.3,68.0
7.301,68.2
7.3020000000000005,68.0
7.303,68.2
7.304,68.0
7.305,68.0
7.306,68.0
7.307,68.2
7.308,68.0
7.309,68.2
7.3100000000000005,68.0
7.311,68.0
7.312,68.0
7.313,68.0
7.314,68.2
7.315,67.8
7.316,67.8
7.317,67.8
7.3180000000000005,67.8
7.319,68.0
7.32,67.8
7.321,68.0
7.322,68.0
7.323,68.0
7.324,68.0
7.325,67.8
7.3260000000000005,67.8
7.327,67.8
7.328,67.8
7.329,67.8
7.33,68.0
7.331,68.0
7.332,67.8
7.333,68.0
7.3340000000000005,67.8
7.335,67.8
7.336,67.8
7.337,67.8
7.338,68.0
7.339,68.0
7.34,67.6
7.341,67.8
7.3420000000000005,67.8
7.343,67.8
7.344,67.8
7.345,67.6
7.346,67.6
7.347,67.8
7.348,67.8
7.349,67.8
7.3500000000000005,67.8
7.351,67.8
7.352,67.8
7.353,67.6
7.354,67.6
7.355,67.6
7.356,67.6
7.357,67.6
7.3580000000000005,67.6
7.359,67.6
7.36,67.6
7.361,67.6
7.362,67.6
7.363,67.6
7.364,67.6
7.365,67.6
7.3660000000000005,67.8
7.367,67.4
7.368,67.6
7.369,67.6
7.37,67.6
7.371,67.8
7.372,67.6
7.373,67.4
7.3740000000000006,67.6
7.375,67.6
7.376,67.6
7.377,67.6
7.378,67.4
7.3790000000000004,67.4
7.38,67.4
7.381,67.6
7.382000000000001,67.6
7.383,67.4
7.384,67.6
7.385,67.6
7.386,67.4
7.3870000000000005,67.4
7.388,67.2
7.389,67.4
7.390000000000001,67.4
7.391,67.4
7.392,67.6
7.393,67.4
7.394,67.6
7.3950000000000005,67.4
7.396,67.4
7.397,67.4
7.398000000000001,67.6
7.399,67.4
7.4,67.4
7.401,67.4
7.402,67.4
7.4030000000000005,67.2
7.404,67.6
7.405,67.4
7.406000000000001,67.4
7.407,67.2
7.408,67.2
7.409,67.2
7.41,67.4
7.4110000000000005,67.2
7.412,67.4
7.413,67.2
7.414000000000001,67.2
7.415,67.2
7.416,67.2
7.417,67.2
7.418,67.2
7.4190000000000005,67.2
7.42,67.2
7.421,67.2
7.422000000000001,67.2
7.423,67.2
7.424,67.2
7.425,67.2
7.426,67.2
7.4270000000000005,67.2
7.428,67.2
7.429,67.2
7.43,67.2
7.431,67.2
7.432,67.2
7.433,67.2
7.434,67.0
7.4350000000000005,67.2
7.436,67.2
7.437,67.0
7.438,67.2
7.439,67.2
7.44,67.0
7.441,67.0
7.442,67.0
7.4430000000000005,67.2
7.444,67.2
7.445,67.2
7.446,67.2
7.447,67.0
7.448,67.2
7.449,67.2
7.45,67.0
7.4510000000000005,67.0
7.452,66.8
7.453,67.2
7.454,66.8
7.455,67.0
7.456,66.8
7.457,66.8
7.458,67.0
7.4590000000000005,66.8
7.46,66.8
7.461,66.8
7.462,66.8
7.463,67.2
7.464,67.0
7.465,67.0
7.466,66.8
7.4670000000000005,66.8
7.468,67.0
7.469,66.8
7.47,66.8
7.471,66.8
7.472,67.0
7.473,67.0
7.474,67.2
7.4750000000000005,67.0
7.476,66.8
7.477,66.8
7.478,66.8
7.479,66.8
7.48,66.8
7.481,66.8
7.482,66.8
7.4830000000000005,66.8
7.484,66.8
7.485,66.8
7.486,66.8
7.487,66.6
7.488,66.8
7.489,66.8
7.49,66.6
7.4910000000000005,66.8
7.492,66.8
7.493,66.6
7.494,66.8
7.495,66.6
7.496,66.6
7.497,66.8
7.498,66.6
7.4990000000000006,66.6
7.5,66.6
7.501,66.8
7.502,66.6
7.503,66.8
7.5040000000000004,66.6
7.505,66.8
7.506,66.8
7.507000000000001,66.8
7.508,66.6
7.509,66.6
7.51,66.8
7.511,66.6
7.5120000000000005,66.4
7.513,66.6
7.514,66.4
7.515000000000001,66.4
7.516,66.8
7.517,66.4
7.518,66.2
7.519,66.6
7.5200000000000005,66.6
7.521,66.6
7.522,66.6
7.523000000000001,66.6
7.524,66.4
7.525,66.4
7.526,66.4
7.527,66.6
7.5280000000000005,66.4
7.529,66.4
7.53,66.4
7.531000000000001,66.6
7.532,66.4
7.533,66.4
7.534,66.6
7.535,66.2
7.5360000000000005,66.4
7.537,66.4
7.538,66.4
7.539000000000001,66.2
7.54,66.4
7.541,66.4
7.542,66.4
7.543,66.2
7.5440000000000005,66.4
7.545,66.4
7.546,66.4
7.547000000000001,66.4
7.548,66.4
7.549,66.2
7.55,66.4
7.551,66.4
7.5520000000000005,66.4
7.553,66.4
7.554,66.2
7.555,66.4
7.556,66.4
7.557,66.2
7.558,66.2
7.559,66.4
7.5600000000000005,66.4
7.561,66.2
7.562,66.4
7.563,66.4
7.564,66.4
7.565,66.2
7.566,66.4
7.567,66.2
7.5680000000000005,66.2
7.569,66.4
7.57,66.2
7.571,66.0
7.572,66.2
7.573,66.2
7.574,66.2
7.575,66.0
7.5760000000000005,66.4
7.577,66.0
7.578,66.2
7.579,66.4
7.58,66.2
7.581,66.2
7.582,66.2
7.583,66.4
7.5840000000000005,65.8
7.585,66.2
7.586,66.0
7.587,66.2
7.588,66.0
7.589,66.0
7.59,66.2
7.591,66.0
7.5920000000000005,66.2
7.593,66.2
7.594,66.2
7.595,66.2
7.596,66.2
7.597,66.2
7.598,66.0
7.599,66.0
7.6000000000000005,66.2
7.601,66.0
7.602,66.2
7.603,66.0
7.604,66.0
7.605,66.0
7.606,66.0
7.607,66.0
7.6080000000000005,66.2
7.609,66.2
7.61,66.0
7.611,66.0
7.612,66.0
7.613,66.0
7.614,65.8
7.615,66.0
7.6160000000000005,66.0
7.617,65.8
7.618,66.0
7.619,66.0
7.62,66.0
7.621,66.0
7.622,65.8
7.623,65.8
7.6240000000000006,65.8
7.625,65.8
7.626,66.0
7.627,65.8
7.628,66.0
7.6290000000000004,65.8
7.63,66.0
7.631,66.0
7.632000000000001,66.0
7.633,66.0
7.634,65.8
7.635,66.0
7.636,65.8
7.6370000000000005,65.8
7.638,65.6
7.639,65.8
7.640000000000001,65.8
7.641,66.0
7.642,65.8
7.643,65.8
7.644,65.8
7.6450000000000005,65.8
7.646,65.8
7.647,66.0
7.648000000000001,65.8
7.649,65.6
7.65,65.8
7.651,65.8
7.652,65.8
7.6530000000000005,65.6
7.654,65.8
7.655,66.0
7.656000000000001,65.6
7.657,65.8
7.658,65.8
7.659,65.8
7.66,65.8
7.6610000000000005,65.8
7.662,65.8
7.663,65.8
7.664000000000001,65.6
7.665,65.8
7.666,65.6
7.667,65.8
7.668,65.8
7.6690000000000005,65.8
7.67,65.4
7.671,65.4
7.672000000000001,65.8
7.673,65.4
7.674,65.4
7.675,65.8
7.676,65.6
7.6770000000000005,65.6
7.678,65.8
7.679,65.6
7.68,65.6
7.681,65.6
7.682,65.6
7.683,65.2
7.684,65.4
7.6850000000000005,65.6
7.686,65.4
7.687,65.6
7.688,65.6
7.689,65.6
7.69,65.4
7.691,65.6
7.692,65.6
7.6930000000000005,65.4
7.694,65.8
7.695,65.6
7.696,65.4
7.697,65.4
7.698,65.4
7.699,65.6
7.7,65.4
7.7010000000000005,65.4
7.702,65.4
7.703,65.4
7.704,65.4
7.705,65.4
7.706,65.4
7.707,65.4
7.708,65.4
7.7090000000000005,65.6
7.71,65.4
7.711,65.4
7.712,65.4
7.713,65.2
7.714,65.4
7.715,65.6
7.716,65.4
7.7170000000000005,65.2
7.718,65.4
7.719,65.4
7.72,65.4
7.721,65.2
7.722,65.2
7.723,65.2
7.724,65.2
7.7250000000000005,65.2
7.726,65.4
7.727,65.4
7.728,65.2
7.729,65.4
7.73,65.2
7.731,65.4
7.732,65.4
7.7330000000000005,65.2
7.734,65.4
7.735,65.4
7.736,65.2
7.737,65.2
7.738,65.4
7.739,65.2
7.74,65.4
7.7410000000000005,65.2
7.742,65.0
7.743,65.2
7.744,65.2
7.745,65.4
7.746,65.4
7.747,65.2
7.748,65.2
7.7490000000000006,65.2
7.75,65.4
7.751,65.2
7.752,65.2
7.753,65.2
7.7540000000000004,65.0
7.755,65.0
7.756,65.2
7.757000000000001,65.4
7.758,65.2
7.759,65.2
7.76,65.2
7.761,65.2
7.7620000000000005,65.0
7.763,65.0
7.764,65.2
7.765000000000001,65.0
7.766,65.2
7.767,65.2
7.768,65.2
7.769,65.0
7.7700000000000005,65.0
7.771,65.0
7.772,65.2
7.773000000000001,65.0
7.774,65.0
7.775,64.8
7.776,65.0
7.777,65.2
7.7780000000000005,65.0
7.779,65.0
7.78,65.2
7.781000000000001,65.2
7.782,65.0
7.783,65.0
7.784,65.0
7.785,65.0
7.7860000000000005,65.0
7.787,65.2
7.788,65.2
7.789000000000001,65.0
7.79,65.0
7.791,65.0
7.792,65.0
7.793,65.0
7.7940000000000005,65.2
7.795,64.8
7.796,65.0
7.797000000000001,64.6
7.798,65.0
7.799,64.8
7.8,65.2
7.801,64.6
7.8020000000000005,65.0
7.803,65.0
7.804,65.0
7.805000000000001,64.8
7.806,65.0
7.807,65.0
7.808,65.2
7.809,65.0
7.8100000000000005,65.0
7.811,65.0
7.812,64.8
7.813,65.0
7.814,65.0
7.815,65.0
7.816,65.0
7.817,64.8
7.8180000000000005,65.0
7.819,65.0
7.82,64.8
7.821,64.8
7.822,64.8
7.823,64.8
7.824,65.0
7.825,65.0
7.8260000000000005,65.0
7.827,64.8
7.828,65.0
7.829,65.0
7.83,65.0
7.831,64.8
7.832,64.8
7.833,65.0
7.8340000000000005,64.6
7.835,64.8
7.836,64.8
7.837,64.8
7.838,65.0
7.839,64.8
7.84,64.8
7.841,64.6
7.8420000000000005,64.8
7.843,64.8
7.844,64.8
7.845,64.8
7.846,64.8
7.847,64.8
7.848,64.8
7.849,65.0
7.8500000000000005,64.8
7.851,64.8
7.852,64.8
7.853,64.6
7.854,64.8
7.855,64.6
7.856,65.0
7.857,64.8
7.8580000000000005,65.0
7.859,65.0
7.86,65.0
7.861,64.8
7.862,64.6
7.863,64.8
7.864,64.6
7.865,64.8
7.8660000000000005,64.6
7.867,64.6
7.868,64.8
7.869,64.6
7.87,64.8
7.871,64.6
7.872,64.4
7.873,64.8
7.8740000000000006,64.8
7.875,64.6
7.876,64.6
7.877,64.8
7.878,64.8
7.8790000000000004,64.8
7.88,64.8
7.881,64.6
7.882000000000001,64.6
7.883,64.8
7.884,64.8
7.885,64.8
7.886,64.8
7.8870000000000005,64.8
7.888,64.8
7.889,64.8
7.890000000000001,64.8
7.891,64.6
7.892,64.8
7.893,64.8
7.894,64.8
7.8950000000000005,64.6
7.896,64.6
7.897,64.6
7.898000000000001,64.6
7.899,64.8
7.9,64.4
7.901,64.6
7.902,64.8
7.9030000000000005,64.6
7.904,64.6
7.905,64.6
7.906000000000001,64.6
7.907,64.6
7.908,64.6
7.909,64.6
7.91,64.4
7.9110000000000005,64.4
7.912,64.6
7.913,64.6
7.914000000000001,64.4
7.915,64.4
7.916,64.6
7.917,64.6
7.918,64.6
7.9190000000000005,64.4
7.92,64.6
7.921,64.2
7.922000000000001,64.6
7.923,64.6
7.924,64.6
7.925,64.6
7.926,64.4
7.9270000000000005,64.6
7.928,64.6
7.929,64.6
7.930000000000001,64.8
7.931,64.4
7.932,64.6
7.933,64.6
7.934,64.4
7.9350000000000005,64.2
7.936,64.4
7.937,64.6
7.938,64.6
7.939,64.6
7.94,64.4
7.941,64.2
7.942,64.4
7.9430000000000005,64.4
7.944,64.6
7.945,64.4
7.946,64.4
7.947,64.4
7.948,64.4
7.949,64.6
7.95,64.4
7.9510000000000005,64.6
7.952,64.4
7.953,64.4
7.954,64.2
7.955,64.4
7.956,64.4
7.957,64.6
7.958,64.4
7.9590000000000005,64.4
7.96,64.4
7.961,64.4
7.962,64.6
7.963,64.2
7.964,64.6
7.965,64.4
7.966,64.4
7.9670000000000005,64.4
7.968,64.4
7.969,64.6
7.97,64.4
7.971,64.4
7.972,64.4
7.973,64.4
7.974,64.2
7.9750000000000005,64.4
7.976,64.6
7.977,64.4
7.978,64.4
7.979,64.4
7.98,64.2
7.981,64.4
7.982,64.2
7.9830000000000005,64.4
7.984,64.4
7.985,64.4
7.986,64.4
7.987,64.2
7.988,64.4
7.989,64.4
7.99,64.4
7.9910000000000005,64.4
7.992,64.4
7.993,64.2
7.994,64.4
7.995,64.2
7.996,64.4
7.997,64.6
7.998,64.4
7.9990000000000006,64.4
8.0,64.6
8.001,64.4
8.002,64.4
8.003,64.2
8.004,64.2
8.005,64.2
8.006,64.4
8.007,64.4
8.008000000000001,64.2
8.009,64.2
8.01,64.2
8.011000000000001,64.2
8.012,64.4
8.013,64.4
8.014,64.2
8.015,64.4
8.016,64.2
8.017,64.4
8.018,64.2
8.019,64.2
8.02,64.2
8.021,64.2
8.022,64.4
8.023,64.2
8.024000000000001,64.4
8.025,64.2
8.026,64.2
8.027000000000001,64.2
8.028,64.4
8.029,64.2
8.03,64.2
8.031,64.2
8.032,64.0
8.033,64.2
8.034,64.0
8.035,64.2
8.036,64.2
8.037,64.4
8.038,64.0
8.039,64.0
8.040000000000001,64.2
8.041,64.2
8.042,64.2
8.043000000000001,64.2
8.044,64.2
8.045,64.0
8.046,64.4
8.047,64.2
8.048,64.2
8.049,64.0
8.05,64.2
8.051,64.2
8.052,64.2
8.053,64.0
8.054,64.2
8.055,64.4
8.056000000000001,64.4
8.057,64.4
8.058,64.2
8.059000000000001,64.2
8.06,64.2
8.061,64.2
8.062,64.0
8.063,64.2
8.064,64.2
8.065,64.2
8.066,64.0
8.067,64.2
8.068,64.2
8.069,64.2
8.07,64.0
8.071,64.2
8.072000000000001,64.0
8.073,64.2
8.074,64.2
8.075,64.2
8.076,64.0
8.077,64.2
8.078,64.2
8.079,64.0
8.08,64.2
8.081,64.0
8.082,64.2
8.083,64.0
8.084,64.2
8.085,64.2
8.086,64.0
8.087,64.2
8.088000000000001,64.2
8.089,64.0
8.09,64.2
8.091,64.2
8.092,64.2
8.093,64.2
8.094,63.8
8.095,64.2
8.096,64.0
8.097,64.2
8.098,64.0
8.099,64.2
8.1,64.0
8.101,64.2
8.102,64.0
8.103,64.2
8.104000000000001,64.2
8.105,64.2
8.106,64.0
8.107,64.2
8.108,64.0
8.109,64.0
8.11,64.2
8.111,64.2
8.112,64.0
8.113,64.0
8.114,64.0
8.115,64.2
8.116,64.2
8.117,64.0
8.118,64.0
8.119,64.0
8.120000000000001,63.8
8.121,64.2
8.122,64.2
8.123,64.2
8.124,63.8
8.125,64.0
8.126,64.2
8.127,64.0
8.128,64.2
8.129,63.8
8.13,64.2
8.131,63.8
8.132,64.0
8.133000000000001,64.0
8.134,64.0
8.135,64.0
8.136000000000001,64.0
8.137,64.0
8.138,64.0
8.139,64.0
8.14,64.0
8.141,64.2
8.142,64.2
8.143,64.0
8.144,63.8
8.145,64.0
8.146,63.8
8.147,64.0
8.148,64.0
8.149000000000001,64.2
8.15,64.2
8.151,64.0
8.152000000000001,64.0
8.153,64.0
8.154,64.2
8.155,64.0
8.156,64.0
8.157,64.2
8.158,64.2
8.159,63.8
8.16,64.0
8.161,63.8
8.162,64.0
8.163,64.0
8.164,64.0
8.165000000000001,64.0
8.166,63.8
8.167,64.2
8.168000000000001,63.6
8.169,63.8
8.17,64.0
8.171,63.8
8.172,63.6
8.173,64.0
8.174,64.0
8.175,64.0
8.176,64.0
8.177,64.2
8.178,64.0
8.179,64.0
8.18,63.8
8.181000000000001,64.0
8.182,63.8
8.183,64.0
8.184000000000001,64.2
8.185,63.8
8.186,64.0
8.187,64.0
8.188,64.0
8.189,64.0
8.19,64.0
8.191,64.0
8.192,64.0
8.193,63.8
8.194,64.0
8.195,63.8
8.196,64.0
8.197000000000001,64.0
8.198,63.8
8.199,64.2
8.2,64.0
8.201,64.0
8.202,63.8
8.203,64.0
8.204,64.2
8.205,64.0
8.206,63.8
8.207,64.0
8.208,64.0
8.209,64.0
8.21,64.0
8.211,63.6
8.212,63.6
8.213000000000001,63.8
8.214,64.0
8.215,64.2
8.216,63.8
8.217,64.0
8.218,63.8
8.219,63.8
8.22,63.8
8.221,63.8
8.222,64.0
8.223,63.8
8.224,64.0
8.225,64.0
8.226,64.0
8.227,64.0
8.228,63.8
8.229000000000001,63.8
8.23,63.8
8.231,63.8
8.232,63.8
8.233,63.8
8.234,63.8
8.235,63.8
8.236,63.8
8.237,63.8
8.238,63.8
8.239,64.2
8.24,63.8
8.241,63.8
8.242,63.8
8.243,63.8
8.244,63.8
8.245000000000001,64.0
8.246,64.0
8.247,63.6
8.248,64.0
8.249,64.0
8.25,63.8
8.251,63.6
8.252,63.8
8.253,63.8
8.254,63.8
8.255,63.8
8.256,63.6
8.257,64.0
8.258000000000001,63.6
8.259,63.8
8.26,63.6
8.261000000000001,63.8
8.262,63.8
8.263,63.8
8.264,63.6
8.265,63.8
8.266,64.0
8.267,63.8
8.268,63.8
8.269,64.0
8.27,63.6
8.271,63.6
8.272,64.0
8.273,64.0
8.274000000000001,63.8
8.275,64.2
8.276,63.8
8.277000000000001,63.6
8.278,63.6
8.279,63.8
8.28,63.8
8.281,63.8
8.282,63.6
8.283,63.8
8.284,63.8
8.285,63.8
8.286,64.0
8.287,63.8
8.288,64.0
8.289,64.0
8.290000000000001,63.8
8.291,63.8
8.292,63.6
8.293000000000001,63.8
8.294,63.8
8.295,63.8
8.296,63.8
8.297,64.0
8.298,63.8
8.299,64.0
8.3,63.8
8.301,63.8
8.302,63.8
8.303,63.8
8.304,64.0
8.305,63.6
8.306000000000001,63.8
8.307,63.6
8.308,64.0
8.309000000000001,63.8
8.31,63.6
8.311,63.8
8.312,63.8
8.313,63.8
8.314,63.8
8.315,63.6
8.316,63.6
8.317,63.8
8.318,63.8
8.319,63.8
8.32,63.8
8.321,63.8
8.322000000000001,63.6
8.323,63.8
8.324,63.8
8.325,63.8
8.326,63.8
8.327,63.6
8.328,63.8
8.329,63.6
8.33,63.8
8.331,63.6
8.332,63.8
8.333,63.8
8.334,63.8
8.335,63.8
8.336,63.6
8.337,63.8
8.338000000000001,63.8
8.339,63.8
8.34,63.8
8.341,63.8
8.342,63.8
8.343,63.6
8.344,63.6
8.345,63.8
8.346,63.8
8.347,63.8
8.348,63.8
8.349,63.8
8.35,63.8
8.351,63.8
8.352,63.8
8.353,63.8
8.354000000000001,63.8
8.355,63.8
8.356,63.8
8.357,63.4
8.358,63.8
8.359,63.6
8.36,63.8
8.361,63.8
8.362,63.8
8.363,63.6
8.364,63.6
8.365,63.8
8.366,63.8
8.367,63.6
8.368,63.8
8.369,63.6
8.370000000000001,63.8
8.371,63.8
8.372,63.8
8.373,63.6
8.374,63.8
8.375,63.8
8.376,63.6
8.377,63.8
8.378,63.8
8.379,63.8
8.38,63.8
8.381,63.8
8.382,63.8
8.383000000000001,64.0
8.384,63.8
8.385,63.8
8.386000000000001,63.8
8.387,63.8
8.388,63.8
8.389,63.6
8.39,63.8
8.391,63.6
8.392,63.8
8.393,63.8
8.394,64.0
8.395,63.8
8.396,63.8
8.397,63.8
8.398,64.2
8.399000000000001,63.8
8.4,63.8
8.401,63.8
8.402000000000001,64.0
8.403,63.8
8.404,63.6
8.405,63.6
8.406,63.6
8.407,64.0
8.408,64.0
8.409,63.8
8.41,63.6
8.411,63.8
8.412,64.0
8.413,63.8
8.414,63.8
8.415000000000001,63.6
8.416,63.8
8.417,63.8
8.418000000000001,63.8
8.419,63.8
8.42,63.8
8.421,63.6
8.422,63.6
8.423,63.8
8.424,63.8
8.425,63.8
8.426,63.8
8.427,63.8
8.428,63.8
8.429,63.6
8.43,63.6
8.431000000000001,63.8
8.432,64.0
8.433,63.8
8.434000000000001,63.6
8.435,63.6
8.436,63.8
8.437,64.0
8.438,64.0
8.439,63.8
8.44,63.8
8.441,63.8
8.442,63.6
8.443,63.8
8.444,63.8
8.445,63.8
8.446,64.0
8.447000000000001,63.8
8.448,63.6
8.449,63.6
8.45,64.0
8.451,63.8
8.452,64.0
8.453,63.8
8.454,64.0
8.455,64.0
8.456,63.6
8.457,63.8
8.458,63.6
8.459,63.8
8.46,63.8
8.461,63.8
8.462,63.8
8.463000000000001,63.8
8.464,63.8
8.465,63.8
8.466,63.6
8.467,64.0
8.468,63.8
8.469,63.6
8.47,64.0
8.471,63.8
8.472,63.8
8.473,64.0
8.474,63.8
8.475,63.8
8.476,63.8
8.477,63.8
8.478,63.8
8.479000000000001,63.8
8.48,63.8
8.481,64.0
8.482,63.8
8.483,63.8
8.484,64.0
8.485,63.8
8.486,63.8
8.487,64.0
8.488,63.8
8.489,64.0
8.49,63.6
8.491,63.8
8.492,64.0
8.493,63.8
8.494,63.6
8.495000000000001,63.8
8.496,63.8
8.497,64.0
8.498,63.6
8.499,63.8
8.5,63.8
8.501,64.0
8.502,63.8
8.503,63.8
8.504,63.8
8.505,63.6
8.506,63.8
8.507,63.8
8.508000000000001,63.6
8.509,63.6
8.51,63.8
8.511000000000001,63.8
8.512,63.8
8.513,63.8
8.514,64.0
8.515,63.8
8.516,63.6
8.517,63.6
8.518,64.0
8.519,64.0
8.52,63.8
8.521,64.2
8.522,63.8
8.523,64.0
8.524000000000001,64.0
8.525,63.8
8.526,63.8
8.527000000000001,63.8
8.528,63.8
8.529,63.6
8.53,63.8
8.531,63.8
8.532,63.8
8.533,63.8
8.534,63.8
8.535,63.8
8.536,64.0
8.537,63.8
8.538,64.0
8.539,64.0
8.540000000000001,63.8
8.541,64.0
8.542,63.8
8.543000000000001,63.8
8.544,63.8
8.545,64.0
8.546,63.8
8.547,64.0
8.548,63.6
8.549,63.8
8.55,63.8
8.551,64.0
8.552,64.0
8.553,64.0
8.554,64.0
8.555,64.0
8.556000000000001,64.0
8.557,63.8
8.558,63.8
8.559000000000001,64.0
8.56,64.0
8.561,63.8
8.562,64.0
8.563,64.0
8.564,64.0
8.565,63.8
8.566,64.0
8.567,63.8
8.568,64.0
8.569,64.2
8.57,64.0
8.571,63.8
8.572000000000001,64.2
8.573,64.2
8.574,63.8
8.575000000000001,63.8
8.576,63.8
8.577,64.2
8.578,63.8
8.579,64.0
8.58,64.2
8.581,64.0
8.582,63.8
8.583,63.8
8.584,63.8
8.585,64.2
8.586,63.8
8.587,64.2
8.588000000000001,64.0
8.589,63.8
8.59,64.0
8.591,63.6
8.592,64.0
8.593,63.8
8.594,64.0
8.595,63.8
8.596,64.0
8.597,63.8
8.598,63.8
8.599,64.0
8.6,63.8
8.601,64.0
8.602,64.0
8.603,63.8
8.604000000000001,63.8
8.605,64.2
8.606,64.0
8.607,63.8
8.608,63.8
8.609,64.2
8.61,64.2
8.611,64.2
8.612,64.0
8.613,64.0
8.614,64.0
8.615,64.0
8.616,64.0
8.617,64.2
8.618,64.0
8.619,63.8
8.620000000000001,64.0
8.621,64.2
8.622,64.0
8.623,64.2
8.624,64.0
8.625,64.2
8.626,64.0
8.627,64.0
8.628,64.0
8.629,64.0
8.63,64.0
8.631,64.2
8.632,63.8
8.633000000000001,64.0
8.634,64.0
8.635,64.2
8.636000000000001,64.0
8.637,64.2
8.638,64.0
8.639,64.0
8.64,64.0
8.641,64.2
8.642,64.0
8.643,64.0
8.644,64.2
8.645,64.0
8.646,64.0
8.647,63.8
8.648,64.2
8.649000000000001,64.2
8.65,64.2
8.651,64.0
8.652000000000001,64.2
8.653,64.2
8.654,64.0
8.655,64.2
8.656,64.0
8.657,64.2
8.658,64.2
8.659,64.2
8.66,64.0
8.661,63.8
8.662,64.2
8.663,64.0
8.664,64.0
8.665000000000001,64.2
8.666,64.0
8.667,64.0
8.668000000000001,64.2
8.669,64.2
8.67,64.2
8.671,64.2
8.672,64.2
8.673,64.0
8.674,64.2
8.675,64.2
8.676,64.2
8.677,64.2
8.678,64.2
8.679,64.2
8.68,64.0
8.681000000000001,64.2
8.682,64.2
8.683,64.2
8.684000000000001,64.2
8.685,64.2
8.686,64.2
8.687,64.2
8.688,64.0
8.689,64.2
8.69,64.2
8.691,64.2
8.692,64.0
8.693,64.2
8.694,64.2
8.695,64.2
8.696,64.2
8.697000000000001,64.2
8.698,64.2
8.699,64.2
8.700000000000001,64.2
8.701,64.0
8.702,64.0
8.703,64.2
8.704,64.2
8.705,64.4
8.706,64.0
8.707,64.0
8.708,64.2
8.709,64.2
8.71,64.2
8.711,63.8
8.712,64.2
8.713000000000001,64.0
8.714,64.2
8.715,64.2
8.716,64.2
8.717,64.4
8.718,64.2
8.719,64.4
8.72,64.2
8.721,64.2
8.722,64.2
8.723,64.2
8.724,64.2
8.725,64.2
8.726,64.2
8.727,64.2
8.728,64.2
8.729000000000001,64.4
8.73,64.2
8.731,64.2
8.732,64.2
8.733,64.2
8.734,64.2
8.735,64.2
8.736,64.4
8.737,64.2
8.738,64.0
8.739,64.2
8.74,64.2
8.741,64.0
8.742,64.2
8.743,64.2
8.744,64.2
8.745000000000001,64.2
8.746,64.0
8.747,64.4
8.748,64.4
8.749,64.4
8.75,64.4
8.751,64.4
8.752,64.4
8.753,64.2
8.754,64.4
8.755,64.2
8.756,64.2
8.757,64.4
8.758000000000001,64.4
8.759,64.2
8.76,64.2
8.761000000000001,64.4
8.762,64.2
8.763,64.2
8.764,64.4
8.765,64.2
8.766,64.4
8.767,64.4
8.768,64.2
8.769,64.2
8.77,64.2
8.771,64.4
8.772,64.2
8.773,64.2
8.774000000000001,64.2
8.775,64.4
8.776,64.2
8.777000000000001,64.4
8.778,64.4
8.779,64.2
8.78,64.6
8.781,64.4
8.782,64.4
8.783,64.4
8.784,64.6
8.785,64.4
8.786,64.6
8.787,64.0
8.788,64.4
8.789,64.2
8.790000000000001,64.4
8.791,64.2
8.792,64.4
8.793000000000001,64.4
8.794,64.6
8.795,64.4
8.796,64.4
8.797,64.6
8.798,64.4
8.799,64.4
8.8,64.4
8.801,64.4
8.802,64.2
8.803,64.6
8.804,64.6
8.805,64.4
8.806000000000001,64.4
8.807,64.6
8.808,64.4
8.809000000000001,64.4
8.81,64.4
8.811,64.4
8.812,64.4
8.813,64.4
8.814,64.6
8.815,64.4
8.816,64.4
8.817,64.4
8.818,64.6
8.819,64.6
8.82,64.6
8.821,64.4
8.822000000000001,64.4
8.823,64.6
8.824,64.4
8.825000000000001,64.4
8.826,64.4
8.827,64.4
8.828,64.4
8.829,64.6
8.83,64.4
8.831,64.4
8.832,64.4
8.833,64.6
8.834,64.6
8.835,64.6
8.836,64.6
8.837,64.4
8.838000000000001,64.4
8.839,64.6
8.84,64.6
8.841,64.6
8.842,64.6
8.843,64.6
8.844,64.6
8.845,64.4
8.846,64.6
8.847,64.4
8.848,64.6
8.849,64.6
8.85,64.6
8.851,64.6
8.852,64.6
8.853,64.6
8.854000000000001,64.4
8.855,64.6
8.856,64.8
8.857,64.6
8.858,64.6
8.859,64.6
8.86,64.6
8.861,64.4
8.862,64.6
8.863,64.6
8.864,64.4
8.865,64.6
8.866,64.8
8.867,64.6
8.868,64.6
8.869,64.6
8.870000000000001,64.6
8.871,64.4
8.872,64.6
8.873,64.6
8.874,64.6
8.875,64.4
8.876,64.6
8.877,64.6
8.878,64.6
8.879,64.8
8.88,64.6
8.881,64.6
8.882,64.8
8.883000000000001,64.8
8.884,64.8
8.885,64.6
8.886000000000001,64.6
8.887,64.6
8.888,64.6
8.889,64.8
8.89,64.6
8.891,64.8
8.892,64.6
8.893,64.6
8.894,64.6
8.895,64.6
8.896,64.8
8.897,64.8
8.898,64.8
8.899000000000001,64.8
8.9,64.4
8.901,64.4
8.902000000000001,64.8
8.903,64.8
8.904,64.6
8.905,64.8
8.906,64.8
8.907,64.8
8.908,64.8
8.909,64.6
8.91,64.8
8.911,64.4
8.912,64.6
8.913,64.8
8.914,64.8
8.915000000000001,64.6
8.916,64.6
8.917,64.6
8.918000000000001,64.8
8.919,64.8
8.92,64.8
8.921,64.8
8.922,64.8
8.923,64.8
8.924,64.6
8.925,64.6
8.926,64.8
8.927,64.8
8.928,65.0
8.929,64.6
8.93,64.6
8.931000000000001,64.8
8.932,64.8
8.933,64.8
8.934000000000001,65.0
8.935,64.8
8.936,64.8
8.937,64.8
8.938,64.8
8.939,64.8
8.94,64.8
8.941,64.8
8.942,64.8
8.943,64.8
8.944,64.6
8.945,64.8
8.946,64.8
8.947000000000001,65.0
8.948,65.0
8.949,65.0
8.950000000000001,65.0
8.951,64.8
8.952,65.0
8.953,64.8
8.954,64.8
8.955,64.8
8.956,65.0
8.957,64.8
8.958,64.8
8.959,65.0
8.96,64.8
8.961,64.8
8.962,65.0
8.963000000000001,64.6
8.964,65.0
8.965,65.0
8.966,64.8
8.967,64.8
8.968,64.8
8.969,65.0
8.97,64.8
8.971,65.0
8.972,64.8
8.973,65.0
8.974,65.0
8.975,65.0
8.976,65.2
8.977,65.0
8.978,65.0
8.979000000000001,65.2
8.98,65.2
8.981,65.0
8.982,65.0
8.983,65.0
8.984,65.2
8.985,64.8
8.986,65.0
8.987,65.0
8.988,65.2
8.989,65.0
8.99,65.2
8.991,65.2
8.992,65.2
8.993,65.0
8.994,65.2
8.995000000000001,65.0
8.996,65.2
8.997,65.2
8.998,65.0
8.999,65.0
9.0,65.0
9.001,65.2
9.002,65.0
9.003,65.0
9.004,65.0
9.005,65.2
9.006,65.2
9.007,65.2
9.008000000000001,65.0
9.009,65.0
9.01,64.8
9.011000000000001,65.2
9.012,65.0
9.013,65.0
9.014,65.2
9.015,65.2
9.016,65.0
9.017,65.2
9.018,65.2
9.019,65.2
9.02,65.2
9.021,65.4
9.022,65.2
9.023,65.2
9.024000000000001,65.2
9.025,65.0
9.026,65.2
9.027000000000001,65.2
9.028,65.0
9.029,65.0
9.03,65.2
9.031,65.4
9.032,65.4
9.033,65.2
9.034,65.2
9.035,65.2
9.036,65.2
9.037,65.2
9.038,65.2
9.039,65.0
9.040000000000001,65.4
9.041,65.2
9.042,65.0
9.043000000000001,65.2
9.044,65.4
9.045,65.2
9.046,65.4
9.047,65.2
9.048,65.4
9.049,65.4
9.05,65.2
9.051,65.4
9.052,65.2
9.053,65.2
9.054,65.4
9.055,65.4
9.056000000000001,65.2
9.057,65.2
9.058,65.2
9.059000000000001,65.4
9.06,65.2
9.061,65.4
9.062,65.2
9.063,65.2
9.064,65.4
9.065,65.4
9.066,65.2
9.067,65.6
9.068,65.4
9.069,65.6
9.07,65.4
9.071,65.2
9.072000000000001,65.4
9.073,65.4
9.074,65.6
9.075000000000001,65.6
9.076,65.2
9.077,65.6
9.078,65.6
9.079,65.4
9.08,65.4
9.081,65.6
9.082,65.4
9.083,65.4
9.084,65.6
9.085,65.6
9.086,65.4
9.087,65.8
9.088000000000001,65.6
9.089,65.4
9.09,65.4
9.091,65.4
9.092,65.6
9.093,65.6
9.094,65.8
9.095,65.6
9.096,65.8
9.097,65.4
9.098,65.6
9.099,65.4
9.1,65.8
9.101,65.8
9.102,65.4
9.103,65.4
9.104000000000001,65.8
9.105,65.8
9.106,65.6
9.107,65.6
9.108,65.6
9.109,65.4
9.11,65.6
9.111,65.8
9.112,65.8
9.113,65.8
9.114,65.6
9.115,65.8
9.116,65.8
9.117,65.8
9.118,65.8
9.119,65.6
9.120000000000001,65.8
9.121,65.6
9.122,65.6
9.123,65.6
9.124,66.0
9.125,65.8
9.126,65.8
9.127,65.6
9.128,65.6
9.129,65.6
9.13,65.8
9.131,65.8
9.132,65.8
9.133000000000001,65.6
9.134,65.4
9.135,65.8
9.136000000000001,65.8
9.137,65.8
9.138,65.8
9.139,65.8
9.14,65.6
9.141,65.8
9.142,65.6
9.143,66.0
9.144,65.8
9.145,66.0
9.146,65.8
9.147,65.8
9.148,66.0
9.149000000000001,65.6
9.15,66.0
9.151,65.8
9.152000000000001,66.0
9.153,65.8
9.154,65.8
9.155,65.8
9.156,65.8
9.157,65.8
9.158,65.8
9.159,65.8
9.16,66.0
9.161,65.8
9.162,66.0
9.163,65.8
9.164,66.0
9.165000000000001,65.8
9.166,66.2
9.167,66.0
9.168000000000001,65.8
9.169,65.8
9.17,66.0
9.171,66.0
9.172,66.0
9.173,65.8
9.174,66.2
9.175,65.8
9.176,66.0
9.177,66.2
9.178,66.0
9.179,66.2
9.18,66.0
9.181000000000001,66.2
9.182,66.0
9.183,66.0
9.184000000000001,66.0
9.185,66.0
9.186,66.0
9.187,66.0
9.188,66.2
9.189,66.0
9.19,66.2
9.191,66.0
9.192,66.0
9.193,66.2
9.194,66.2
9.195,66.2
9.196,66.0
9.197000000000001,66.0
9.198,66.0
9.199,66.2
9.200000000000001,66.4
9.201,66.0
9.202,66.0
9.203,66.2
9.204,66.2
9.205,66.4
9.206,66.0
9.207,66.2
9.208,66.2
9.209,66.2
9.21,66.2
9.211,66.2
9.212,66.2
9.213000000000001,66.2
9.214,66.2
9.215,66.4
9.216000000000001,66.4
9.217,66.2
9.218,66.2
9.219,66.4
9.22,66.4
9.221,66.4
9.222,66.2
9.223,66.2
9.224,66.4
9.225,66.2
9.226,66.2
9.227,66.2
9.228,66.4
9.229000000000001,66.4
9.23,66.4
9.231,66.4
9.232,66.2
9.233,66.4
9.234,66.4
9.235,66.4
9.236,66.2
9.237,66.4
9.238,66.4
9.239,66.4
9.24,66.2
9.241,66.4
9.242,66.4
9.243,66.6
9.244,66.4
9.245000000000001,66.4
9.246,66.4
9.247,66.4
9.248,66.2
9.249,66.4
9.25,66.6
9.251,66.4
9.252,66.6
9.253,66.6
9.254,66.6
9.255,66.4
9.256,66.4
9.257,66.6
9.258000000000001,66.6
9.259,66.4
9.26,66.4
9.261000000000001,66.6
9.262,66.6
9.263,66.4
9.264,66.6
9.265,66.6
9.266,66.4
9.267,66.4
9.268,66.6
9.269,66.6
9.27,66.6
9.271,66.6
9.272,66.4
9.273,66.6
9.274000000000001,66.8
9.275,66.4
9.276,66.6
9.277000000000001,66.6
9.278,66.8
9.279,66.8
9.28,66.6
9.281,66.8
9.282,66.6
9.283,66.6
9.284,66.6
9.285,66.6
9.286,66.6
9.287,66.8
9.288,66.8
9.289,66.8
9.290000000000001,66.6
9.291,66.6
9.292,66.8
9.293000000000001,66.8
9.294,66.6
9.295,66.6
9.296,66.8
9.297,66.6
9.298,66.8
9.299,66.8
9.3,66.6
9.301,66.8
9.302,66.8
9.303,66.8
9.304,66.8
9.305,66.8
9.306000000000001,66.8
9.307,66.8
9.308,66.8
9.309000000000001,66.8
9.31,66.8
9.311,66.8
9.312,67.0
9.313,66.8
9.314,67.0
9.315,66.8
9.316,66.8
9.317,66.8
9.318,66.8
9.319,66.8
9.32,66.8
9.321,67.0
9.322000000000001,67.0
9.323,67.0
9.324,67.0
9.325000000000001,67.0
9.326,66.8
9.327,66.8
9.328,67.0
9.329,67.2
9.33,66.8
9.331,67.0
9.332,67.0
9.333,67.0
9.334,67.2
9.335,67.0
9.336,67.2
9.337,67.2
9.338000000000001,67.0
9.339,67.0
9.34,67.0
9.341000000000001,67.0
9.342,66.8
9.343,67.0
9.344,67.2
9.345,67.0
9.346,67.2
9.347,67.2
9.348,67.0
9.349,67.2
9.35,67.0
9.351,67.2
9.352,67.2
9.353,67.2
9.354000000000001,67.2
9.355,67.2
9.356,67.0
9.357,67.0
9.358,67.0
9.359,67.2
9.36,67.2
9.361,67.2
9.362,67.2
9.363,67.2
9.364,67.2
9.365,67.2
9.366,67.2
9.367,67.0
9.368,67.2
9.369,67.4
9.370000000000001,67.2
9.371,67.4
9.372,67.4
9.373,67.4
9.374,67.4
9.375,67.4
9.376,67.2
9.377,67.4
9.378,67.2
9.379,67.2
9.38,67.4
9.381,67.4
9.382,67.4
9.383000000000001,67.2
9.384,67.4
9.385,67.2
9.386000000000001,67.4
9.387,67.6
9.388,67.6
9.389,67.4
9.39,67.2
9.391,67.4
9.392,67.4
9.393,67.4
9.394,67.4
9.395,67.4
9.396,67.6
9.397,67.6
9.398,67.6
9.399000000000001,67.2
9.4,67.6
9.401,67.6
9.402000000000001,67.6
9.403,67.4
9.404,67.4
9.405,67.6
9.406,67.6
9.407,67.2
9.408,67.4
9.409,67.6
9.41,67.6
9.411,67.6
9.412,67.4
9.413,67.6
9.414,67.6
9.415000000000001,67.6
9.416,67.4
9.417,67.6
9.418000000000001,67.6
9.419,67.4
9.42,67.6
9.421,67.6
9.422,67.6
9.423,67.6
9.424,67.6
9.425,67.4
9.426,67.8
9.427,67.8
9.428,67.8
9.429,67.6
9.43,67.6
9.431000000000001,67.8
9.432,67.8
9.433,67.4
9.434000000000001,67.6
9.435,67.8
9.436,67.8
9.437,67.6
9.438,67.8
9.439,67.6
9.44,67.8
9.441,67.8
9.442,67.6
9.443,67.8
9.444,67.8
9.445,68.0
9.446,67.8
9.447000000000001,67.8
9.448,67.8
9.449,67.8
9.450000000000001,67.6
9.451,67.8
9.452,67.8
9.453,67.8
9.454,67.8
9.455,68.0
9.456,67.8
9.457,67.8
9.458,67.8
9.459,67.6
9.46,68.0
9.461,68.0
9.462,67.8
9.463000000000001,67.8
9.464,68.0
9.465,67.8
9.466000000000001,68.0
9.467,68.0
9.468,67.8
9.469,67.8
9.47,68.2
9.471,68.0
9.472,68.0
9.473,68.0
9.474,68.0
9.475,68.0
9.476,68.2
9.477,68.0
9.478,68.0
9.479000000000001,68.0
9.48,68.0
9.481,68.0
9.482,67.8
9.483,68.0
9.484,68.0
9.485,68.2
9.486,68.0
9.487,68.0
9.488,68.2
9.489,68.0
9.49,68.0
9.491,68.0
9.492,68.0
9.493,68.0
9.494,68.2
9.495000000000001,68.2
9.496,68.0
9.497,68.2
9.498,68.2
9.499,68.2
9.5,68.0
9.501,68.2
9.502,68.2
9.503,68.2
9.504,68.4
9.505,68.2
9.506,68.2
9.507,68.2
9.508000000000001,68.2
9.509,68.2
9.51,68.4
9.511000000000001,68.2
9.512,68.2
9.513,68.2
9.514,68.4
9.515,68.2
9.516,68.2
9.517,68.4
9.518,68.2
9.519,68.4
9.52,68.4
9.521,68.4
9.522,68.4
9.523,68.2
9.524000000000001,68.4
9.525,68.4
9.526,68.2
9.527000000000001,68.4
9.528,68.4
9.529,68.4
9.53,68.4
9.531,68.6
9.532,68.4
9.533,68.2
9.534,68.4
9.535,68.2
9.536,68.4
9.537,68.4
9.538,68.4
9.539,68.4
9.540000000000001,68.4
9.541,68.4
9.542,68.6
9.543000000000001,68.4
9.544,68.6
9.545,68.4
9.546,68.4
9.547,68.6
9.548,68.4
9.549,68.4
9.55,68.6
9.551,68.4
9.552,68.4
9.553,68.6
9.554,68.6
9.555,68.4
9.556000000000001,68.6
9.557,68.6
9.558,68.6
9.559000000000001,68.4
9.56,68.4
9.561,68.4
9.562,68.6
9.563,68.8
9.564,68.4
9.565,68.6
9.566,68.6
9.567,68.6
9.568,68.8
9.569,68.6
9.57,68.6
9.571,68.8
9.572000000000001,68.8
9.573,68.6
9.574,68.6
9.575000000000001,68.6
9.576,68.6
9.577,68.6
9.578,68.6
9.579,68.6
9.58,68.6
9.581,68.8
9.582,68.8
9.583,68.8
9.584,68.8
9.585,68.6
9.586,68.6
9.587,68.8
9.588000000000001,68.8
9.589,68.8
9.59,68.6
9.591000000000001,68.8
9.592,68.8
9.593,68.8
9.594,68.8
9.595,68.8
9.596,68.8
9.597,68.8
9.598,69.0
9.599,68.8
9.6,69.0
9.601,68.8
9.602,68.8
9.603,69.0
9.604000000000001,68.8
9.605,68.8
9.606,68.8
9.607,69.0
9.608,68.8
9.609,69.0
9.61,68.8
9.611,68.8
9.612,69.2
9.613,69.0
9.614,68.8
9.615,69.0
9.616,69.2
9.617,68.8
9.618,69.0
9.619,68.6
9.620000000000001,69.0
9.621,68.8
9.622,69.0
9.623,69.0
9.624,69.0
9.625,69.2
9.626,69.0
9.627,69.0
9.628,69.0
9.629,69.0
9.63,69.0
9.631,69.0
9.632,69.2
9.633000000000001,69.0
9.634,69.0
9.635,69.0
9.636000000000001,69.2
9.637,69.0
9.638,69.2
9.639,69.0
9.64,69.2
9.641,69.2
9.642,69.2
9.643,69.2
9.644,69.2
9.645,69.2
9.646,69.2
9.647,69.0
9.648,69.0
9.649000000000001,69.2
9.65,69.2
9.651,69.2
9.652000000000001,69.2
9.653,69.2
9.654,69.2
9.655,69.2
9.656,69.2
9.657,69.2
9.658,69.2
9.659,69.2
9.66,69.2
9.661,69.4
9.662,69.4
9.663,69.2
9.664,69.4
9.665000000000001,69.4
9.666,69.2
9.667,69.2
9.668000000000001,69.2
9.669,69.4
9.67,69.2
9.671,69.4
9.672,69.4
9.673,69.4
9.674,69.6
9.675,69.2
9.676,69.2
9.677,69.4
9.678,69.4
9.679,69.4
9.68,69.2
9.681000000000001,69.4
9.682,69.4
9.683,69.4
9.684000000000001,69.4
9.685,69.4
9.686,69.4
9.687,69.6
9.688,69.6
9.689,69.8
9.69,69.6
9.691,69.4
9.692,69.4
9.693,69.4
9.694,69.6
9.695,69.4
9.696,69.4
9.697000000000001,69.4
9.698,69.4
9.699,69.6
9.700000000000001,69.6
9.701,69.4
9.702,69.6
9.703,69.6
9.704,69.8
9.705,69.4
9.706,69.6
9.707,69.8
9.708,69.6
9.709,69.6
9.71,69.6
9.711,69.8
9.712,69.8
9.713000000000001,69.6
9.714,69.6
9.715,69.6
9.716000000000001,69.6
9.717,69.6
9.718,69.8
9.719,70.0
9.72,69.8
9.721,69.6
9.722,69.6
9.723,69.6
9.724,69.8
9.725,69.8
9.726,69.8
9.727,69.6
9.728,69.8
9.729000000000001,70.0
9.73,69.8
9.731,69.8
9.732,69.8
9.733,70.0
9.734,69.8
9.735,69.6
9.736,69.8
9.737,69.8
9.738,69.8
9.739,69.8
9.74,69.8
9.741,70.0
9.742,69.8
9.743,70.0
9.744,70.0
9.745000000000001,69.8
9.746,70.0
9.747,69.8
9.748,70.0
9.749,69.8
9.75,70.0
9.751,69.8
9.752,69.8
9.753,69.8
9.754,70.0
9.755,69.8
9.756,69.8
9.757,70.2
9.758000000000001,70.0
9.759,69.8
9.76,70.0
9.761000000000001,70.2
9.762,70.0
9.763,70.0
9.764,69.8
9.765,70.2
9.766,70.0
9.767,70.2
9.768,70.2
9.769,70.2
9.77,70.2
9.771,70.0
9.772,70.0
9.773,70.2
9.774000000000001,70.2
9.775,70.2
9.776,70.2
9.777000000000001,70.0
9.778,70.2
9.779,70.0
9.78,70.4
9.781,70.2
9.782,70.4
9.783,70.0
9.784,70.2
9.785,70.0
9.786,70.4
9.787,70.4
9.788,70.4
9.789,70.4
9.790000000000001,70.2
9.791,70.2
9.792,70.2
9.793000000000001,70.4
9.794,70.4
9.795,70.2
9.796,70.2
9.797,70.4
9.798,70.4
9.799,70.4
9.8,70.2
9.801,70.2
9.802,70.2
9.803,70.2
9.804,70.4
9.805,70.4
9.806000000000001,70.4
9.807,70.2
9.808,70.4
9.809000000000001,70.4
9.81,70.6
9.811,70.4
9.812,70.2
9.813,70.4
9.814,70.4
9.815,70.4
9.816,70.4
9.817,70.4
9.818,70.4
9.819,70.6
9.82,70.2
9.821,70.2
9.822000000000001,70.4
9.823,70.4
9.824,70.4
9.825000000000001,70.4
9.826,70.2
9.827,70.2
9.828,70.4
9.829,70.6
9.83,70.4
9.831,70.4
9.832,70.6
9.833,70.6
9.834,70.4
9.835,70.4
9.836,70.4
9.837,70.6
9.838000000000001,70.4
9.839,70.6
9.84,70.8
9.841000000000001,70.6
9.842,70.4
9.843,70.4
9.844,70.2
9.845,70.6
9.846,70.6
9.847,70.6
9.848,70.2
9.849,70.4
9.85,70.8
9.851,70.6
9.852,70.4
9.853,70.6
9.854000000000001,70.4
9.855,70.6
9.856,70.8
9.857,70.8
9.858,70.6
9.859,70.6
9.86,70.8
9.861,70.6
9.862,70.4
9.863,70.6
9.864,70.6
9.865,70.6
9.866,70.8
9.867,70.8
9.868,70.6
9.869,70.8
9.870000000000001,70.8
9.871,70.8
9.872,70.8
9.873,70.8
9.874,70.8
9.875,70.8
9.876,70.6
9.877,70.8
9.878,70.8
9.879,70.8
9.88,70.6
9.881,70.8
9.882,70.8
9.883000000000001,70.8
9.884,70.6
9.885,70.8
9.886000000000001,71.0
9.887,70.8
9.888,70.8
9.889,70.6
9.89,70.6
9.891,70.6
9.892,71.0
9.893,70.8
9.894,70.6
9.895,70.8
9.896,70.8
9.897,71.0
9.898,71.0
9.899000000000001,70.8
9.9,70.8
9.901,70.8
9.902000000000001,70.8
9.903,71.0
9.904,71.0
9.905,71.0
9.906,70.8
9.907,70.8
9.908,71.0
9.909,71.0
9.91,71.0
9.911,70.8
9.912,71.0
9.913,70.8
9.914,70.6
9.915000000000001,70.8
9.916,70.8
9.917,71.0
9.918000000000001,71.0
9.919,70.8
9.92,70.8
9.921,70.8
9.922,71.0
9.923,71.0
9.924,71.0
9.925,70.8
9.926,71.0
9.927,71.0
9.928,71.0
9.929,71.2
9.93,70.8
9.931000000000001,71.0
9.932,71.0
9.933,71.0
9.934000000000001,70.8
9.935,71.0
9.936,71.0
9.937,71.2
9.938,71.2
9.939,71.2
9.94,71.0
9.941,71.0
9.942,71.2
9.943,71.0
9.944,71.0
9.945,71.0
9.946,71.2
9.947000000000001,70.8
9.948,71.0
9.949,71.2
9.950000000000001,71.0
9.951,71.0
9.952,71.2
9.953,71.0
9.954,71.2
9.955,71.2
9.956,71.2
9.957,71.2
9.958,71.2
9.959,71.4
9.96,71.0
9.961,71.0
9.962,71.0
9.963000000000001,71.2
9.964,71.0
9.965,71.2
9.966000000000001,71.2
9.967,71.2
9.968,71.4
9.969,71.4
9.97,71.2
9.971,71.2
9.972,71.2
9.973,71.2
9.974,71.2
9.975,71.0
9.976,71.2
9.977,71.0
9.978,71.2
9.979000000000001,71.2
9.98,71.4
9.981,71.4
9.982000000000001,71.2
9.983,71.0
9.984,71.2
9.985,71.6
9.986,71.6
9.987,71.4
9.988,71.4
9.989,71.2
9.99,71.0
9.991,71.4
9.992,71.4
9.993,71.2
9.994,71.4
9.995000000000001,71.4
9.996,71.6
9.997,71.4
9.998,71.2
9.999,71.4
