####### Preamble ##########################
#	byt_nr=1
#	bit_nr=8
#	encdg=BIN
#	bn_fmt=RI
#	byt_or=MSB
#	nr_pt=10000
#	wfid="Ch1, DC coupling, 5.0E0 V/div, 2.0E-1 s/div, 10000 points, Sample mode"
#	pt_fmt=Y
#	xincr=2.0E-4
#	pt_off=0
#	xzero=-1.0E0
#	xunit="s"
#	ymult=2.0E-1
#	yzero=0.0E0
#	yoff=5.7E1
#	yunit="V"
#######  Cursor ##########################
#VBA;IND;"s";-7.36E-1;-8.04E-1;1.0E-1;6.8E-2;CURSOR1;-4.8E0;-4.9E0;-1.26E1;-2.1E1;8.4E0;CURSOR1;"V";CURSOR1;CURSOR1X;-3.24E1;-2.08E1;9.6E0;4.32E1;RECT;0.0E0;0.0E0;0.0E0;0.0E0;0.0E0;0.0E0;9.9E37;9.9E37;9.9E37;9.9E37;9.9E37;9.9E37;9.9E37;9.9E37;9.9E37;9.9E37;9.9E37;9.9E37
#######  Data ##########################
#RIB;REF1;CH1;1;10000;1
# Delete the above lines to open in excel ######

Time [s],volts [V]
0.0,64.0
0.0002,67.6
0.0004,66.8
0.0006000000000000001,66.6
0.0008,66.6
0.001,66.6
0.0012000000000000001,66.6
0.0014,63.4
0.0016,63.6
0.0018000000000000002,63.6
0.002,63.4
0.0022,63.4
0.0024000000000000002,63.4
0.0026000000000000003,63.4
0.0028,63.4
0.003,63.4
0.0032,63.6
0.0034000000000000002,63.4
0.0036000000000000003,63.4
0.0038,63.6
0.004,63.2
0.004200000000000001,63.4
0.0044,63.6
0.0046,63.4
0.0048000000000000004,63.4
0.005,63.6
0.005200000000000001,63.4
0.0054,63.6
0.0056,63.6
0.0058000000000000005,63.6
0.006,63.4
0.006200000000000001,63.6
0.0064,63.6
0.0066,63.6
0.0068000000000000005,63.6
0.007,63.6
0.007200000000000001,63.4
0.0074,63.6
0.0076,63.4
0.0078000000000000005,63.6
0.008,63.4
0.0082,63.4
0.008400000000000001,63.4
0.0086,63.6
0.0088,63.4
0.009000000000000001,63.4
0.0092,63.6
0.0094,63.4
0.009600000000000001,63.4
0.0098,63.8
0.01,63.4
0.0102,63.6
0.010400000000000001,63.4
0.0106,63.6
0.0108,63.4
0.011000000000000001,63.4
0.0112,63.6
0.0114,63.6
0.011600000000000001,63.6
0.0118,63.6
0.012,63.6
0.0122,63.8
0.012400000000000001,63.6
0.0126,63.2
0.0128,63.4
0.013000000000000001,63.4
0.0132,63.6
0.0134,63.4
0.013600000000000001,63.4
0.013800000000000002,63.4
0.014,63.6
0.0142,63.4
0.014400000000000001,63.4
0.0146,63.4
0.0148,63.4
0.015000000000000001,63.4
0.0152,63.4
0.0154,63.4
0.015600000000000001,63.6
0.0158,63.6
0.016,63.6
0.0162,63.4
0.0164,63.4
0.0166,63.4
0.016800000000000002,63.6
0.017,63.4
0.0172,63.4
0.017400000000000002,63.4
0.0176,63.6
0.0178,63.4
0.018000000000000002,63.6
0.0182,63.4
0.0184,63.6
0.018600000000000002,63.6
0.0188,63.4
0.019,63.6
0.019200000000000002,63.4
0.0194,63.6
0.0196,63.4
0.0198,63.4
0.02,63.4
0.020200000000000003,63.6
0.0204,63.6
0.0206,63.6
0.020800000000000003,63.6
0.021,63.4
0.0212,63.4
0.021400000000000002,63.4
0.0216,63.6
0.0218,63.6
0.022000000000000002,63.6
0.0222,63.4
0.0224,63.4
0.022600000000000002,63.6
0.0228,63.6
0.023,63.6
0.023200000000000002,63.4
0.0234,63.4
0.0236,63.4
0.0238,63.4
0.024,63.4
0.024200000000000003,63.4
0.0244,63.4
0.0246,63.4
0.024800000000000003,63.4
0.025,63.4
0.0252,63.6
0.025400000000000002,63.6
0.0256,63.4
0.0258,63.4
0.026000000000000002,63.4
0.0262,63.6
0.0264,63.6
0.026600000000000002,63.6
0.0268,63.4
0.027,63.4
0.027200000000000002,63.6
0.0274,63.4
0.027600000000000003,63.4
0.027800000000000002,63.4
0.028,63.4
0.028200000000000003,63.6
0.0284,63.4
0.0286,63.4
0.028800000000000003,63.6
0.029,63.6
0.0292,63.4
0.029400000000000003,63.6
0.0296,63.6
0.0298,63.4
0.030000000000000002,63.6
0.0302,63.4
0.0304,63.4
0.030600000000000002,63.6
0.0308,63.6
0.031,63.4
0.031200000000000002,63.4
0.031400000000000004,63.4
0.0316,63.6
0.0318,63.6
0.032,63.4
0.0322,63.6
0.0324,63.4
0.032600000000000004,63.4
0.0328,63.4
0.033,63.4
0.0332,63.6
0.0334,63.6
0.033600000000000005,63.2
0.033800000000000004,63.6
0.034,63.2
0.0342,63.4
0.0344,63.4
0.0346,63.4
0.034800000000000005,63.4
0.035,63.6
0.0352,63.6
0.0354,63.4
0.0356,63.6
0.0358,63.6
0.036000000000000004,63.6
0.0362,63.6
0.0364,63.6
0.0366,63.6
0.0368,63.4
0.037000000000000005,63.6
0.037200000000000004,63.4
0.0374,63.6
0.0376,63.6
0.0378,63.6
0.038,63.4
0.038200000000000005,63.6
0.038400000000000004,63.6
0.0386,63.2
0.0388,63.6
0.039,63.6
0.0392,63.6
0.039400000000000004,63.2
0.0396,63.4
0.0398,63.4
0.04,63.4
0.0402,63.6
0.040400000000000005,63.6
0.040600000000000004,63.2
0.0408,63.4
0.041,63.4
0.0412,63.6
0.0414,63.6
0.041600000000000005,63.6
0.041800000000000004,63.4
0.042,63.6
0.0422,63.6
0.0424,63.6
0.0426,63.4
0.042800000000000005,63.6
0.043000000000000003,63.6
0.0432,63.4
0.0434,63.4
0.0436,63.2
0.0438,63.6
0.044000000000000004,63.6
0.0442,63.4
0.0444,63.2
0.0446,63.6
0.0448,63.4
0.045000000000000005,63.6
0.045200000000000004,63.6
0.0454,63.6
0.0456,63.4
0.0458,63.4
0.046,63.4
0.046200000000000005,63.4
0.046400000000000004,63.6
0.0466,63.4
0.0468,63.4
0.047,63.4
0.0472,63.4
0.047400000000000005,63.6
0.0476,63.4
0.0478,63.4
0.048,63.2
0.0482,63.6
0.048400000000000006,63.4
0.048600000000000004,63.6
0.0488,63.6
0.049,63.4
0.0492,63.6
0.0494,63.6
0.049600000000000005,63.6
0.049800000000000004,63.6
0.05,63.4
0.0502,63.4
0.0504,63.6
0.0506,63.6
0.050800000000000005,63.4
0.051000000000000004,63.4
0.0512,63.6
0.0514,63.4
0.0516,63.6
0.051800000000000006,63.6
0.052000000000000005,63.6
0.0522,63.4
0.0524,63.4
0.0526,63.4
0.0528,63.6
0.053000000000000005,63.6
0.053200000000000004,63.4
0.0534,63.2
0.0536,63.6
0.0538,63.6
0.054,63.6
0.054200000000000005,63.4
0.054400000000000004,63.4
0.0546,63.4
0.0548,63.4
0.055,63.6
0.055200000000000006,63.4
0.055400000000000005,63.6
0.055600000000000004,63.4
0.0558,63.4
0.056,63.6
0.0562,63.6
0.056400000000000006,63.4
0.056600000000000004,63.4
0.0568,63.6
0.057,63.4
0.0572,63.6
0.0574,63.6
0.057600000000000005,63.4
0.057800000000000004,63.4
0.058,63.6
0.0582,63.6
0.0584,63.4
0.058600000000000006,63.6
0.058800000000000005,63.6
0.059000000000000004,63.6
0.0592,63.4
0.0594,63.4
0.0596,63.6
0.059800000000000006,63.6
0.060000000000000005,63.6
0.060200000000000004,63.6
0.0604,63.4
0.0606,63.4
0.0608,63.6
0.061000000000000006,63.6
0.061200000000000004,63.6
0.0614,63.6
0.0616,63.6
0.0618,63.6
0.062,63.4
0.062200000000000005,63.6
0.062400000000000004,63.6
0.0626,63.6
0.06280000000000001,63.6
0.063,63.4
0.0632,63.4
0.0634,63.4
0.0636,63.4
0.06380000000000001,63.4
0.064,63.4
0.06420000000000001,63.4
0.0644,63.6
0.0646,63.4
0.0648,63.6
0.065,63.6
0.06520000000000001,63.6
0.0654,63.6
0.0656,63.6
0.0658,63.6
0.066,63.6
0.06620000000000001,63.6
0.0664,63.4
0.0666,63.2
0.0668,63.6
0.067,63.2
0.06720000000000001,63.4
0.0674,63.4
0.06760000000000001,63.4
0.0678,63.6
0.068,63.4
0.0682,63.4
0.0684,63.6
0.06860000000000001,63.6
0.0688,63.4
0.069,63.4
0.0692,63.4
0.0694,63.6
0.06960000000000001,63.6
0.0698,63.4
0.07,63.4
0.0702,63.6
0.0704,63.6
0.07060000000000001,63.6
0.0708,63.4
0.07100000000000001,63.6
0.0712,63.8
0.0714,63.6
0.0716,63.6
0.0718,63.4
0.07200000000000001,63.2
0.0722,63.4
0.0724,63.6
0.0726,63.6
0.0728,63.6
0.07300000000000001,63.6
0.0732,63.4
0.0734,63.6
0.0736,63.4
0.0738,63.6
0.07400000000000001,63.4
0.0742,63.4
0.07440000000000001,63.6
0.0746,63.4
0.0748,63.6
0.075,63.4
0.0752,63.6
0.07540000000000001,63.4
0.0756,63.4
0.0758,63.6
0.076,63.6
0.0762,63.6
0.07640000000000001,63.4
0.0766,63.4
0.07680000000000001,63.4
0.077,63.6
0.0772,63.4
0.07740000000000001,63.4
0.0776,63.6
0.07780000000000001,63.6
0.078,63.6
0.0782,63.4
0.0784,63.6
0.0786,63.6
0.07880000000000001,63.4
0.079,63.4
0.0792,63.4
0.0794,63.6
0.0796,63.6
0.07980000000000001,63.6
0.08,63.6
0.08020000000000001,63.4
0.0804,63.4
0.0806,63.4
0.08080000000000001,63.6
0.081,63.6
0.08120000000000001,63.4
0.0814,63.2
0.0816,63.6
0.0818,63.4
0.082,63.6
0.08220000000000001,63.2
0.0824,63.6
0.0826,63.6
0.0828,63.4
0.083,63.6
0.08320000000000001,63.4
0.0834,63.4
0.08360000000000001,63.4
0.0838,63.4
0.084,63.4
0.08420000000000001,63.6
0.0844,63.4
0.08460000000000001,63.6
0.0848,63.4
0.085,63.6
0.0852,63.6
0.0854,63.8
0.08560000000000001,63.6
0.0858,63.6
0.08600000000000001,63.6
0.0862,63.2
0.0864,63.2
0.08660000000000001,63.4
0.0868,63.2
0.08700000000000001,63.6
0.0872,63.4
0.0874,63.4
0.0876,63.4
0.0878,63.4
0.08800000000000001,63.6
0.0882,63.6
0.0884,63.6
0.0886,63.4
0.0888,63.6
0.08900000000000001,63.6
0.0892,63.6
0.08940000000000001,63.6
0.0896,63.4
0.0898,63.4
0.09000000000000001,63.4
0.0902,63.6
0.09040000000000001,63.4
0.0906,63.4
0.0908,63.6
0.091,63.6
0.0912,63.6
0.09140000000000001,63.6
0.0916,63.6
0.0918,63.4
0.092,63.4
0.0922,63.4
0.09240000000000001,63.8
0.0926,63.4
0.09280000000000001,63.4
0.093,63.4
0.0932,63.6
0.09340000000000001,63.4
0.0936,63.4
0.09380000000000001,63.4
0.094,63.4
0.0942,63.4
0.0944,63.6
0.0946,63.4
0.09480000000000001,63.4
0.095,63.6
0.0952,63.8
0.0954,63.4
0.0956,63.6
0.09580000000000001,63.4
0.096,63.6
0.09620000000000001,63.6
0.0964,63.4
0.0966,63.6
0.09680000000000001,63.4
0.097,63.6
0.09720000000000001,63.6
0.0974,63.4
0.0976,63.4
0.0978,63.4
0.098,63.4
0.09820000000000001,63.4
0.0984,63.6
0.09860000000000001,63.6
0.0988,63.4
0.099,63.6
0.09920000000000001,63.6
0.0994,63.8
0.09960000000000001,63.4
0.0998,63.6
0.1,63.4
0.10020000000000001,63.4
0.1004,63.2
0.10060000000000001,63.6
0.1008,63.6
0.101,63.6
0.1012,63.4
0.1014,63.6
0.10160000000000001,63.4
0.1018,63.6
0.10200000000000001,63.4
0.1022,63.6
0.1024,63.6
0.10260000000000001,63.4
0.1028,63.6
0.10300000000000001,63.4
0.1032,63.6
0.1034,63.4
0.10360000000000001,63.2
0.1038,63.4
0.10400000000000001,63.4
0.1042,63.2
0.1044,63.6
0.1046,63.6
0.1048,63.6
0.10500000000000001,63.4
0.1052,63.6
0.10540000000000001,63.6
0.1056,63.6
0.1058,63.4
0.10600000000000001,63.6
0.1062,63.4
0.10640000000000001,63.6
0.1066,63.2
0.1068,63.4
0.10700000000000001,63.2
0.1072,63.4
0.10740000000000001,63.4
0.1076,63.4
0.1078,63.4
0.108,63.6
0.1082,63.4
0.10840000000000001,63.2
0.1086,63.6
0.10880000000000001,63.6
0.109,63.6
0.1092,63.6
0.10940000000000001,63.4
0.1096,63.6
0.10980000000000001,63.6
0.11,63.6
0.1102,63.4
0.11040000000000001,63.4
0.1106,63.6
0.11080000000000001,63.6
0.111,63.4
0.11120000000000001,63.6
0.1114,63.6
0.1116,63.4
0.11180000000000001,63.2
0.112,63.4
0.11220000000000001,63.6
0.1124,63.4
0.1126,63.4
0.11280000000000001,63.2
0.113,63.6
0.11320000000000001,63.4
0.1134,63.6
0.1136,63.2
0.11380000000000001,63.4
0.114,63.4
0.11420000000000001,63.4
0.1144,63.4
0.11460000000000001,63.2
0.1148,63.6
0.115,63.6
0.11520000000000001,63.4
0.1154,63.8
0.11560000000000001,63.6
0.1158,63.4
0.116,63.4
0.11620000000000001,63.6
0.1164,63.4
0.11660000000000001,63.4
0.1168,63.6
0.117,63.4
0.11720000000000001,63.6
0.1174,63.6
0.11760000000000001,63.6
0.1178,63.4
0.11800000000000001,63.6
0.1182,63.4
0.1184,63.6
0.11860000000000001,63.6
0.1188,63.6
0.11900000000000001,63.6
0.1192,63.6
0.1194,63.6
0.11960000000000001,63.4
0.1198,63.6
0.12000000000000001,63.4
0.1202,63.4
0.12040000000000001,63.6
0.1206,63.4
0.1208,63.4
0.12100000000000001,63.4
0.1212,63.6
0.12140000000000001,63.4
0.1216,63.8
0.1218,63.4
0.12200000000000001,63.4
0.1222,63.6
0.12240000000000001,63.4
0.1226,63.6
0.1228,63.4
0.12300000000000001,63.6
0.1232,63.4
0.12340000000000001,63.4
0.1236,63.4
0.12380000000000001,63.6
0.124,63.4
0.1242,63.6
0.12440000000000001,63.4
0.1246,63.4
0.12480000000000001,63.6
0.125,63.4
0.1252,63.4
0.1254,63.6
0.12560000000000002,63.4
0.1258,63.4
0.126,63.4
0.1262,63.6
0.1264,63.4
0.12660000000000002,63.4
0.1268,63.4
0.127,63.4
0.1272,63.6
0.1274,63.4
0.12760000000000002,63.4
0.1278,63.6
0.128,63.6
0.1282,63.2
0.12840000000000001,63.4
0.12860000000000002,63.4
0.1288,63.6
0.129,63.8
0.1292,63.4
0.12940000000000002,63.4
0.1296,63.6
0.1298,63.6
0.13,63.6
0.1302,63.4
0.13040000000000002,63.6
0.1306,63.4
0.1308,63.6
0.131,63.6
0.1312,63.4
0.13140000000000002,63.2
0.1316,63.4
0.1318,63.6
0.132,63.6
0.1322,63.4
0.13240000000000002,63.2
0.1326,63.4
0.1328,63.4
0.133,63.4
0.1332,63.6
0.13340000000000002,63.4
0.1336,63.6
0.1338,63.2
0.134,63.4
0.1342,63.4
0.13440000000000002,63.4
0.1346,63.6
0.1348,63.6
0.135,63.6
0.13520000000000001,63.6
0.13540000000000002,63.4
0.1356,63.6
0.1358,63.4
0.136,63.8
0.13620000000000002,63.4
0.1364,63.6
0.1366,63.6
0.1368,63.6
0.137,63.4
0.13720000000000002,63.4
0.1374,63.6
0.1376,63.4
0.1378,63.4
0.138,63.6
0.13820000000000002,63.8
0.1384,63.4
0.1386,63.4
0.1388,63.4
0.139,63.6
0.13920000000000002,63.4
0.1394,63.6
0.1396,63.4
0.1398,63.4
0.14,63.4
0.14020000000000002,63.6
0.1404,63.6
0.1406,63.6
0.1408,63.4
0.14100000000000001,63.6
0.14120000000000002,63.6
0.1414,63.4
0.1416,63.4
0.1418,63.4
0.14200000000000002,63.6
0.1422,63.2
0.1424,63.4
0.1426,63.2
0.1428,63.4
0.14300000000000002,63.4
0.1432,63.6
0.1434,63.4
0.1436,63.4
0.1438,63.4
0.14400000000000002,63.6
0.1442,63.6
0.1444,63.4
0.1446,63.4
0.1448,63.6
0.14500000000000002,63.4
0.1452,63.6
0.1454,63.4
0.1456,63.4
0.1458,63.4
0.14600000000000002,63.6
0.1462,63.2
0.1464,63.4
0.1466,63.4
0.1468,63.4
0.14700000000000002,63.6
0.1472,63.4
0.1474,63.6
0.1476,63.6
0.14780000000000001,63.4
0.14800000000000002,63.2
0.1482,63.6
0.1484,63.4
0.1486,63.6
0.14880000000000002,63.4
0.149,63.6
0.1492,63.6
0.1494,63.6
0.1496,63.6
0.14980000000000002,63.4
0.15,63.4
0.1502,63.4
0.1504,63.6
0.1506,63.6
0.15080000000000002,63.6
0.151,63.6
0.1512,63.2
0.1514,63.4
0.1516,63.8
0.15180000000000002,63.6
0.152,63.4
0.1522,63.6
0.1524,63.2
0.1526,63.6
0.15280000000000002,63.4
0.153,63.6
0.1532,63.4
0.1534,63.4
0.15360000000000001,63.4
0.15380000000000002,63.4
0.154,63.6
0.1542,63.4
0.1544,63.8
0.15460000000000002,63.4
0.15480000000000002,63.4
0.155,63.6
0.1552,63.4
0.1554,63.4
0.15560000000000002,63.4
0.1558,63.4
0.156,63.4
0.1562,63.6
0.1564,63.6
0.15660000000000002,63.6
0.1568,63.4
0.157,63.6
0.1572,63.4
0.1574,63.4
0.15760000000000002,63.4
0.1578,63.4
0.158,63.6
0.1582,63.4
0.1584,63.2
0.15860000000000002,63.8
0.1588,63.6
0.159,63.4
0.1592,63.4
0.15940000000000001,63.4
0.15960000000000002,63.2
0.1598,63.4
0.16,63.6
0.1602,63.6
0.16040000000000001,63.6
0.16060000000000002,63.2
0.1608,63.4
0.161,63.4
0.1612,63.6
0.16140000000000002,63.6
0.16160000000000002,63.4
0.1618,63.6
0.162,63.2
0.1622,63.6
0.16240000000000002,63.2
0.1626,63.4
0.1628,63.6
0.163,63.2
0.1632,63.6
0.16340000000000002,63.6
0.1636,63.4
0.1638,63.6
0.164,63.4
0.1642,63.4
0.16440000000000002,63.6
0.1646,63.6
0.1648,63.8
0.165,63.6
0.1652,63.4
0.16540000000000002,63.4
0.1656,63.4
0.1658,63.6
0.166,63.4
0.16620000000000001,63.6
0.16640000000000002,63.4
0.1666,63.4
0.1668,63.6
0.167,63.4
0.16720000000000002,63.4
0.16740000000000002,63.6
0.1676,63.6
0.1678,63.2
0.168,63.6
0.16820000000000002,63.6
0.16840000000000002,63.6
0.1686,63.6
0.1688,63.6
0.169,63.6
0.16920000000000002,63.6
0.1694,63.6
0.1696,63.4
0.1698,63.4
0.17,63.4
0.17020000000000002,63.6
0.1704,63.4
0.1706,63.6
0.1708,63.6
0.171,63.2
0.17120000000000002,63.2
0.1714,63.4
0.1716,63.6
0.1718,63.6
0.17200000000000001,63.4
0.17220000000000002,63.4
0.1724,63.6
0.1726,63.4
0.1728,63.6
0.17300000000000001,63.2
0.17320000000000002,63.4
0.1734,63.4
0.1736,63.6
0.1738,63.6
0.17400000000000002,63.4
0.17420000000000002,63.4
0.1744,63.4
0.1746,63.4
0.1748,63.4
0.17500000000000002,63.6
0.1752,63.6
0.1754,63.4
0.1756,63.6
0.1758,63.6
0.17600000000000002,63.6
0.1762,63.6
0.1764,63.6
0.1766,63.6
0.1768,63.6
0.17700000000000002,63.6
0.1772,63.6
0.1774,63.6
0.1776,63.6
0.1778,63.4
0.17800000000000002,63.4
0.1782,63.6
0.1784,63.6
0.1786,63.6
0.17880000000000001,63.6
0.17900000000000002,63.6
0.1792,63.4
0.1794,63.2
0.1796,63.4
0.17980000000000002,63.6
0.18000000000000002,63.6
0.1802,63.6
0.1804,63.6
0.1806,63.4
0.18080000000000002,63.2
0.18100000000000002,63.4
0.1812,63.6
0.1814,63.6
0.1816,63.6
0.18180000000000002,63.6
0.182,63.6
0.1822,63.4
0.1824,63.4
0.1826,63.4
0.18280000000000002,63.6
0.183,63.4
0.1832,63.6
0.1834,63.4
0.1836,63.6
0.18380000000000002,63.6
0.184,63.4
0.1842,63.6
0.1844,63.6
0.18460000000000001,63.6
0.18480000000000002,63.6
0.185,63.6
0.1852,63.4
0.1854,63.4
0.18560000000000001,63.4
0.18580000000000002,63.4
0.186,63.6
0.1862,63.4
0.1864,63.4
0.18660000000000002,63.6
0.18680000000000002,63.4
0.187,63.4
0.1872,63.4
0.1874,63.6
0.18760000000000002,63.2
0.18780000000000002,63.4
0.188,63.8
0.1882,63.4
0.1884,63.4
0.18860000000000002,63.4
0.1888,63.6
0.189,63.4
0.1892,63.6
0.1894,63.2
0.18960000000000002,63.4
0.1898,63.6
0.19,63.6
0.1902,63.6
0.1904,63.6
0.19060000000000002,63.6
0.1908,63.4
0.191,63.4
0.1912,63.4
0.19140000000000001,63.6
0.19160000000000002,63.4
0.1918,63.4
0.192,63.2
0.1922,63.4
0.19240000000000002,63.4
0.19260000000000002,63.6
0.1928,63.4
0.193,63.6
0.1932,63.2
0.19340000000000002,63.4
0.19360000000000002,63.4
0.1938,63.4
0.194,63.4
0.1942,63.6
0.19440000000000002,63.4
0.19460000000000002,63.4
0.1948,63.8
0.195,63.8
0.1952,63.6
0.19540000000000002,63.6
0.1956,63.6
0.1958,63.4
0.196,63.6
0.1962,63.4
0.19640000000000002,63.4
0.1966,63.6
0.1968,63.4
0.197,63.4
0.19720000000000001,63.6
0.19740000000000002,63.6
0.1976,63.6
0.1978,63.4
0.198,63.4
0.19820000000000002,63.4
0.19840000000000002,63.4
0.1986,63.4
0.1988,63.6
0.199,63.6
0.19920000000000002,63.4
0.19940000000000002,63.4
0.1996,63.6
0.1998,63.4
0.2,63.6
0.20020000000000002,63.4
0.20040000000000002,63.8
0.2006,63.4
0.2008,63.6
0.201,63.6
0.20120000000000002,63.6
0.20140000000000002,63.6
0.2016,63.4
0.2018,63.6
0.202,63.4
0.20220000000000002,63.4
0.2024,63.4
0.2026,63.2
0.2028,63.4
0.203,63.6
0.20320000000000002,63.4
0.2034,63.4
0.2036,63.6
0.2038,63.6
0.20400000000000001,63.4
0.20420000000000002,63.6
0.2044,63.4
0.2046,63.6
0.2048,63.6
0.20500000000000002,63.4
0.20520000000000002,63.4
0.2054,63.6
0.2056,63.4
0.2058,63.6
0.20600000000000002,63.2
0.20620000000000002,63.4
0.2064,63.6
0.2066,63.4
0.2068,63.4
0.20700000000000002,63.4
0.20720000000000002,63.6
0.2074,63.4
0.2076,63.4
0.2078,63.6
0.20800000000000002,63.6
0.2082,63.4
0.2084,63.4
0.2086,63.6
0.2088,63.4
0.20900000000000002,63.6
0.2092,63.6
0.2094,63.4
0.2096,63.6
0.20980000000000001,63.6
0.21000000000000002,63.6
0.2102,63.6
0.2104,63.6
0.2106,63.4
0.21080000000000002,63.2
0.21100000000000002,63.6
0.2112,63.8
0.2114,63.6
0.2116,63.4
0.21180000000000002,63.4
0.21200000000000002,63.6
0.2122,63.4
0.2124,63.6
0.2126,63.4
0.21280000000000002,63.4
0.21300000000000002,63.2
0.2132,63.4
0.2134,63.6
0.2136,63.4
0.21380000000000002,63.6
0.21400000000000002,63.6
0.2142,63.2
0.2144,63.6
0.2146,63.4
0.21480000000000002,63.4
0.215,63.2
0.2152,63.6
0.2154,63.4
0.2156,63.4
0.21580000000000002,63.6
0.216,63.6
0.2162,63.4
0.2164,63.4
0.21660000000000001,63.6
0.21680000000000002,63.4
0.217,63.4
0.2172,63.6
0.2174,63.4
0.21760000000000002,63.6
0.21780000000000002,63.4
0.218,63.6
0.2182,63.6
0.2184,63.6
0.21860000000000002,63.4
0.21880000000000002,63.4
0.219,63.2
0.2192,63.6
0.2194,63.6
0.21960000000000002,63.6
0.21980000000000002,63.6
0.22,63.2
0.2202,63.4
0.2204,63.4
0.22060000000000002,63.6
0.22080000000000002,63.4
0.221,63.6
0.2212,63.6
0.2214,63.4
0.22160000000000002,63.6
0.2218,63.2
0.222,63.4
0.2222,63.6
0.22240000000000001,63.2
0.22260000000000002,63.4
0.2228,63.6
0.223,63.4
0.2232,63.4
0.22340000000000002,63.6
0.22360000000000002,63.4
0.2238,63.4
0.224,63.4
0.2242,63.6
0.22440000000000002,63.6
0.22460000000000002,63.4
0.2248,63.4
0.225,63.4
0.2252,63.6
0.22540000000000002,63.4
0.22560000000000002,63.4
0.2258,63.4
0.226,63.4
0.2262,63.6
0.22640000000000002,63.4
0.22660000000000002,63.4
0.2268,63.6
0.227,63.6
0.2272,63.4
0.22740000000000002,63.6
0.22760000000000002,63.6
0.2278,63.4
0.228,63.6
0.22820000000000001,63.4
0.22840000000000002,63.6
0.2286,63.4
0.2288,63.6
0.229,63.2
0.22920000000000001,63.4
0.22940000000000002,63.6
0.2296,63.6
0.2298,63.6
0.23,63.4
0.23020000000000002,63.6
0.23040000000000002,63.4
0.2306,63.4
0.2308,63.4
0.231,63.6
0.23120000000000002,63.6
0.23140000000000002,63.2
0.2316,63.4
0.2318,63.4
0.232,63.4
0.23220000000000002,63.4
0.23240000000000002,63.4
0.2326,63.4
0.2328,63.4
0.233,63.4
0.23320000000000002,63.6
0.23340000000000002,63.6
0.2336,63.6
0.2338,63.4
0.234,63.6
0.23420000000000002,63.4
0.23440000000000003,63.6
0.2346,63.6
0.2348,63.4
0.23500000000000001,63.6
0.23520000000000002,63.2
0.2354,63.6
0.2356,63.4
0.2358,63.6
0.23600000000000002,63.6
0.23620000000000002,63.6
0.2364,63.4
0.2366,63.6
0.2368,63.6
0.23700000000000002,63.4
0.23720000000000002,63.6
0.2374,63.4
0.2376,63.2
0.2378,63.6
0.23800000000000002,63.6
0.23820000000000002,63.4
0.2384,63.6
0.2386,63.4
0.2388,63.4
0.23900000000000002,63.4
0.23920000000000002,63.6
0.2394,63.4
0.2396,63.6
0.2398,63.6
0.24000000000000002,63.6
0.24020000000000002,63.4
0.2404,63.6
0.2406,63.4
0.24080000000000001,63.6
0.24100000000000002,63.4
0.2412,63.4
0.2414,63.6
0.2416,63.2
0.24180000000000001,63.4
0.24200000000000002,63.6
0.2422,63.2
0.2424,63.4
0.2426,63.6
0.24280000000000002,63.4
0.24300000000000002,63.6
0.2432,63.6
0.2434,63.6
0.2436,63.4
0.24380000000000002,63.6
0.24400000000000002,63.6
0.2442,63.6
0.2444,63.6
0.2446,63.6
0.24480000000000002,63.4
0.24500000000000002,63.6
0.2452,63.6
0.2454,63.4
0.2456,63.4
0.24580000000000002,63.4
0.24600000000000002,63.6
0.2462,63.2
0.2464,63.4
0.2466,63.4
0.24680000000000002,63.4
0.24700000000000003,63.4
0.2472,63.6
0.2474,63.6
0.24760000000000001,63.6
0.24780000000000002,63.6
0.248,63.4
0.2482,63.4
0.2484,63.8
0.24860000000000002,63.6
0.24880000000000002,63.4
0.249,63.4
0.2492,63.6
0.2494,63.4
0.24960000000000002,63.6
0.24980000000000002,63.4
0.25,63.6
0.25020000000000003,63.4
0.2504,63.4
0.2506,63.6
0.2508,63.4
0.251,63.4
0.25120000000000003,63.4
0.2514,63.4
0.2516,63.4
0.2518,63.4
0.252,63.6
0.25220000000000004,63.4
0.2524,63.4
0.2526,63.4
0.2528,63.6
0.253,63.4
0.25320000000000004,63.6
0.2534,63.4
0.2536,63.6
0.2538,63.4
0.254,63.6
0.25420000000000004,63.6
0.2544,63.4
0.2546,63.4
0.2548,63.6
0.255,63.4
0.25520000000000004,63.6
0.2554,63.6
0.2556,63.4
0.2558,63.6
0.256,63.6
0.25620000000000004,63.4
0.2564,63.4
0.2566,63.6
0.25680000000000003,63.6
0.257,63.4
0.25720000000000004,63.4
0.2574,63.4
0.2576,63.6
0.25780000000000003,63.4
0.258,63.6
0.2582,63.4
0.2584,63.6
0.2586,63.4
0.25880000000000003,63.6
0.259,63.4
0.2592,63.4
0.2594,63.4
0.2596,63.2
0.25980000000000003,63.6
0.26,63.4
0.2602,63.6
0.2604,63.6
0.2606,63.6
0.26080000000000003,63.4
0.261,63.4
0.2612,63.4
0.2614,63.4
0.2616,63.4
0.26180000000000003,63.4
0.262,63.4
0.2622,63.4
0.2624,63.6
0.2626,63.4
0.26280000000000003,63.6
0.263,63.6
0.2632,63.6
0.2634,63.6
0.2636,63.4
0.26380000000000003,63.6
0.264,63.6
0.2642,63.4
0.2644,63.4
0.2646,63.2
0.26480000000000004,63.6
0.265,63.4
0.2652,63.6
0.2654,63.4
0.2656,63.4
0.26580000000000004,63.6
0.266,63.4
0.2662,63.4
0.2664,63.4
0.2666,63.6
0.26680000000000004,63.2
0.267,63.6
0.2672,63.6
0.2674,63.4
0.2676,63.4
0.26780000000000004,63.6
0.268,63.6
0.2682,63.6
0.2684,63.4
0.2686,63.4
0.26880000000000004,63.4
0.269,63.4
0.2692,63.4
0.26940000000000003,63.6
0.2696,63.6
0.26980000000000004,63.4
0.27,63.6
0.2702,63.4
0.27040000000000003,63.6
0.2706,63.6
0.27080000000000004,63.6
0.271,63.4
0.2712,63.4
0.27140000000000003,63.4
0.2716,63.2
0.2718,63.6
0.272,63.4
0.2722,63.4
0.27240000000000003,63.2
0.2726,63.4
0.2728,63.6
0.273,63.4
0.2732,63.6
0.27340000000000003,63.4
0.2736,63.4
0.2738,63.4
0.274,63.4
0.2742,63.6
0.27440000000000003,63.4
0.2746,63.4
0.2748,63.4
0.275,63.4
0.2752,63.6
0.27540000000000003,63.6
0.2756,63.4
0.2758,63.4
0.276,63.6
0.2762,63.4
0.27640000000000003,63.6
0.2766,63.6
0.2768,63.6
0.277,63.6
0.2772,63.4
0.27740000000000004,63.6
0.2776,63.6
0.2778,63.4
0.278,63.6
0.2782,63.2
0.27840000000000004,63.4
0.2786,63.6
0.2788,63.6
0.279,63.4
0.2792,63.6
0.27940000000000004,63.4
0.2796,63.4
0.2798,63.4
0.28,63.6
0.2802,63.4
0.28040000000000004,63.6
0.2806,63.4
0.2808,63.4
0.281,63.6
0.2812,63.4
0.28140000000000004,63.4
0.2816,63.4
0.2818,63.4
0.28200000000000003,63.2
0.2822,63.6
0.28240000000000004,63.2
0.2826,63.6
0.2828,63.6
0.28300000000000003,63.6
0.2832,63.6
0.28340000000000004,63.6
0.2836,63.6
0.2838,63.6
0.28400000000000003,63.4
0.2842,63.4
0.2844,63.4
0.2846,63.4
0.2848,63.4
0.28500000000000003,63.6
0.2852,63.4
0.2854,63.4
0.2856,63.4
0.2858,63.4
0.28600000000000003,63.4
0.2862,63.4
0.2864,63.6
0.2866,63.4
0.2868,63.4
0.28700000000000003,63.6
0.2872,63.4
0.2874,63.4
0.2876,63.6
0.2878,63.6
0.28800000000000003,63.6
0.2882,63.6
0.2884,63.4
0.2886,63.4
0.2888,63.6
0.28900000000000003,63.4
0.2892,63.4
0.2894,63.6
0.2896,63.4
0.2898,63.4
0.29000000000000004,63.4
0.2902,63.6
0.2904,63.6
0.2906,63.4
0.2908,63.2
0.29100000000000004,63.4
0.2912,63.4
0.2914,63.6
0.2916,63.4
0.2918,63.4
0.29200000000000004,63.4
0.2922,63.4
0.2924,63.4
0.2926,63.4
0.2928,63.6
0.29300000000000004,63.4
0.2932,63.6
0.2934,63.6
0.2936,63.6
0.2938,63.4
0.29400000000000004,63.4
0.2942,63.4
0.2944,63.6
0.29460000000000003,63.4
0.2948,63.6
0.29500000000000004,63.6
0.2952,63.6
0.2954,63.6
0.29560000000000003,63.6
0.2958,63.4
0.29600000000000004,63.4
0.2962,63.4
0.2964,63.4
0.29660000000000003,63.4
0.2968,63.4
0.29700000000000004,63.4
0.2972,63.4
0.2974,63.6
0.29760000000000003,63.6
0.2978,63.6
0.298,63.6
0.2982,63.4
0.2984,63.4
0.29860000000000003,63.4
0.2988,63.6
0.299,63.4
0.2992,63.6
0.2994,63.6
0.29960000000000003,63.4
0.2998,63.4
0.3,63.4
0.3002,63.6
0.3004,63.6
0.30060000000000003,63.4
0.3008,63.6
0.301,63.4
0.3012,63.4
0.3014,63.6
0.30160000000000003,63.2
0.3018,63.2
0.302,63.6
0.3022,63.4
0.3024,63.4
0.30260000000000004,63.6
0.3028,63.4
0.303,63.2
0.3032,63.4
0.3034,63.6
0.30360000000000004,63.6
0.3038,63.4
0.304,63.4
0.3042,63.2
0.3044,63.6
0.30460000000000004,63.4
0.3048,63.4
0.305,63.4
0.3052,63.4
0.3054,63.6
0.30560000000000004,63.4
0.3058,63.4
0.306,63.6
0.3062,63.4
0.3064,63.4
0.30660000000000004,63.8
0.3068,63.6
0.307,63.6
0.30720000000000003,63.6
0.3074,63.6
0.30760000000000004,63.6
0.3078,63.4
0.308,63.6
0.30820000000000003,63.4
0.3084,63.4
0.30860000000000004,63.6
0.3088,63.6
0.309,63.6
0.30920000000000003,63.6
0.3094,63.4
0.30960000000000004,63.4
0.3098,63.4
0.31,63.8
0.31020000000000003,63.8
0.3104,63.6
0.3106,63.4
0.3108,63.4
0.311,63.6
0.31120000000000003,63.2
0.3114,63.6
0.3116,63.4
0.3118,63.4
0.312,63.4
0.31220000000000003,63.4
0.3124,63.6
0.3126,63.4
0.3128,63.4
0.313,63.4
0.31320000000000003,63.2
0.3134,63.6
0.3136,63.6
0.3138,63.6
0.314,63.4
0.31420000000000003,63.6
0.3144,63.4
0.3146,63.6
0.3148,63.4
0.315,63.4
0.31520000000000004,63.4
0.3154,63.4
0.3156,63.6
0.3158,63.4
0.316,63.4
0.31620000000000004,63.8
0.3164,63.4
0.3166,63.4
0.3168,63.4
0.317,63.4
0.31720000000000004,63.6
0.3174,63.6
0.3176,63.4
0.3178,63.4
0.318,63.2
0.31820000000000004,63.4
0.3184,63.6
0.3186,63.4
0.31880000000000003,63.4
0.319,63.4
0.31920000000000004,63.4
0.3194,63.4
0.3196,63.6
0.31980000000000003,63.4
0.32,63.6
0.32020000000000004,63.6
0.3204,63.4
0.3206,63.4
0.32080000000000003,63.4
0.321,63.6
0.32120000000000004,63.4
0.3214,63.2
0.3216,63.4
0.32180000000000003,63.6
0.322,63.4
0.32220000000000004,63.4
0.3224,63.6
0.3226,63.8
0.32280000000000003,63.4
0.323,63.4
0.32320000000000004,63.6
0.3234,63.4
0.3236,63.4
0.32380000000000003,63.4
0.324,63.4
0.3242,63.6
0.3244,63.4
0.3246,63.6
0.32480000000000003,63.4
0.325,63.4
0.3252,63.4
0.3254,63.4
0.3256,63.6
0.32580000000000003,63.4
0.326,63.6
0.3262,63.4
0.3264,63.6
0.3266,63.6
0.32680000000000003,63.6
0.327,63.6
0.3272,63.4
0.3274,63.6
0.3276,63.6
0.32780000000000004,63.6
0.328,63.4
0.3282,63.4
0.3284,63.4
0.3286,63.4
0.32880000000000004,63.4
0.329,63.4
0.3292,63.6
0.3294,63.4
0.3296,63.2
0.32980000000000004,63.6
0.33,63.6
0.3302,63.4
0.3304,63.4
0.3306,63.4
0.33080000000000004,63.8
0.331,63.4
0.3312,63.6
0.33140000000000003,63.4
0.3316,63.6
0.33180000000000004,63.2
0.332,63.4
0.3322,63.6
0.33240000000000003,63.6
0.3326,63.6
0.33280000000000004,63.6
0.333,63.4
0.3332,63.6
0.33340000000000003,63.4
0.3336,63.6
0.33380000000000004,63.4
0.334,63.4
0.3342,63.4
0.33440000000000003,63.8
0.3346,63.4
0.33480000000000004,63.4
0.335,63.6
0.3352,63.4
0.33540000000000003,63.6
0.3356,63.4
0.33580000000000004,63.6
0.336,63.6
0.3362,63.6
0.33640000000000003,63.4
0.3366,63.4
0.33680000000000004,63.4
0.337,63.6
0.3372,63.6
0.33740000000000003,63.6
0.3376,63.4
0.3378,63.4
0.338,63.4
0.3382,63.6
0.33840000000000003,63.6
0.3386,63.4
0.3388,63.4
0.339,63.6
0.3392,63.4
0.33940000000000003,63.6
0.3396,63.2
0.3398,63.6
0.34,63.6
0.3402,63.4
0.34040000000000004,63.8
0.3406,63.4
0.3408,63.4
0.341,63.4
0.3412,63.4
0.34140000000000004,63.4
0.3416,63.6
0.3418,63.4
0.342,63.6
0.3422,63.4
0.34240000000000004,63.6
0.3426,63.6
0.3428,63.6
0.343,63.6
0.3432,63.6
0.34340000000000004,63.6
0.3436,63.6
0.3438,63.4
0.34400000000000003,63.6
0.3442,63.4
0.34440000000000004,63.4
0.3446,63.4
0.3448,63.4
0.34500000000000003,63.6
0.3452,63.4
0.34540000000000004,63.4
0.3456,63.6
0.3458,63.6
0.34600000000000003,63.4
0.3462,63.6
0.34640000000000004,63.8
0.3466,63.4
0.3468,63.4
0.34700000000000003,63.6
0.3472,63.6
0.34740000000000004,63.4
0.3476,63.6
0.3478,63.4
0.34800000000000003,63.4
0.3482,63.6
0.34840000000000004,63.4
0.3486,63.4
0.3488,63.6
0.34900000000000003,63.6
0.3492,63.4
0.34940000000000004,63.4
0.3496,63.6
0.3498,63.6
0.35000000000000003,63.4
0.3502,63.4
0.3504,63.4
0.3506,63.6
0.3508,63.4
0.35100000000000003,63.6
0.3512,63.4
0.3514,63.2
0.3516,63.2
0.3518,63.4
0.35200000000000004,63.6
0.3522,63.4
0.3524,63.6
0.3526,63.6
0.3528,63.4
0.35300000000000004,63.6
0.3532,63.6
0.3534,63.6
0.3536,63.4
0.3538,63.4
0.35400000000000004,63.4
0.3542,63.4
0.3544,63.6
0.3546,63.6
0.3548,63.4
0.35500000000000004,63.6
0.3552,63.4
0.3554,63.4
0.3556,63.4
0.3558,63.6
0.35600000000000004,63.6
0.3562,63.4
0.3564,63.4
0.35660000000000003,63.6
0.3568,63.6
0.35700000000000004,63.6
0.3572,63.6
0.3574,63.4
0.35760000000000003,63.2
0.3578,63.4
0.35800000000000004,63.6
0.3582,63.6
0.3584,63.6
0.35860000000000003,63.4
0.3588,63.4
0.35900000000000004,63.4
0.3592,63.6
0.3594,63.4
0.35960000000000003,63.6
0.3598,63.4
0.36000000000000004,63.4
0.3602,63.6
0.3604,63.4
0.36060000000000003,63.2
0.3608,63.4
0.36100000000000004,63.4
0.3612,63.6
0.3614,63.6
0.36160000000000003,63.4
0.3618,63.4
0.36200000000000004,63.6
0.3622,63.4
0.3624,63.4
0.36260000000000003,63.6
0.3628,63.6
0.36300000000000004,63.6
0.3632,63.4
0.3634,63.4
0.36360000000000003,63.4
0.3638,63.4
0.364,63.4
0.3642,63.4
0.3644,63.4
0.36460000000000004,63.6
0.3648,63.4
0.365,63.6
0.3652,63.4
0.3654,63.6
0.36560000000000004,63.6
0.3658,63.4
0.366,63.6
0.3662,63.4
0.3664,63.6
0.36660000000000004,63.6
0.3668,63.4
0.367,63.6
0.3672,63.6
0.3674,63.4
0.36760000000000004,63.4
0.3678,63.6
0.368,63.6
0.3682,63.6
0.3684,63.6
0.36860000000000004,63.6
0.3688,63.6
0.369,63.4
0.36920000000000003,63.4
0.3694,63.6
0.36960000000000004,63.4
0.3698,63.6
0.37,63.4
0.37020000000000003,63.4
0.3704,63.6
0.37060000000000004,63.4
0.3708,63.6
0.371,63.4
0.37120000000000003,63.4
0.3714,63.4
0.37160000000000004,63.4
0.3718,63.6
0.372,63.6
0.37220000000000003,63.6
0.3724,63.8
0.37260000000000004,63.4
0.3728,63.6
0.373,63.4
0.37320000000000003,63.6
0.3734,63.6
0.37360000000000004,63.6
0.3738,63.4
0.374,63.6
0.37420000000000003,63.6
0.3744,63.4
0.37460000000000004,63.2
0.3748,63.6
0.375,63.6
0.37520000000000003,63.2
0.3754,63.4
0.37560000000000004,63.6
0.3758,63.4
0.376,63.4
0.37620000000000003,63.4
0.3764,63.6
0.3766,63.6
0.3768,63.4
0.377,63.4
0.37720000000000004,63.6
0.3774,63.2
0.3776,63.6
0.3778,63.6
0.378,63.6
0.37820000000000004,63.6
0.3784,63.4
0.3786,63.6
0.3788,63.4
0.379,63.6
0.37920000000000004,63.6
0.3794,63.6
0.3796,63.6
0.3798,63.4
0.38,63.4
0.38020000000000004,63.4
0.3804,63.6
0.3806,63.4
0.3808,63.4
0.381,63.4
0.38120000000000004,63.4
0.3814,63.4
0.3816,63.6
0.38180000000000003,63.6
0.382,63.6
0.38220000000000004,63.6
0.3824,63.4
0.3826,63.6
0.38280000000000003,63.6
0.383,63.6
0.38320000000000004,63.4
0.3834,63.2
0.3836,63.6
0.38380000000000003,63.4
0.384,63.4
0.38420000000000004,63.4
0.3844,63.4
0.3846,63.8
0.38480000000000003,63.4
0.385,63.6
0.38520000000000004,63.6
0.3854,63.6
0.3856,63.6
0.38580000000000003,63.6
0.386,63.4
0.38620000000000004,63.6
0.3864,63.6
0.3866,63.6
0.38680000000000003,63.4
0.387,63.6
0.38720000000000004,63.6
0.3874,63.4
0.3876,63.6
0.38780000000000003,63.6
0.388,63.4
0.38820000000000005,63.6
0.3884,63.6
0.3886,63.6
0.38880000000000003,63.2
0.389,63.4
0.38920000000000005,63.6
0.3894,63.6
0.3896,63.6
0.38980000000000004,63.6
0.39,63.4
0.3902,63.6
0.3904,63.2
0.3906,63.6
0.39080000000000004,63.4
0.391,63.4
0.3912,63.4
0.3914,63.4
0.3916,63.6
0.39180000000000004,63.4
0.392,63.6
0.3922,63.6
0.3924,63.4
0.3926,63.8
0.39280000000000004,63.6
0.393,63.6
0.3932,63.4
0.3934,63.6
0.3936,63.4
0.39380000000000004,63.4
0.394,63.6
0.3942,63.4
0.39440000000000003,63.4
0.3946,63.6
0.39480000000000004,63.6
0.395,63.6
0.3952,63.6
0.39540000000000003,63.6
0.3956,63.6
0.39580000000000004,63.4
0.396,63.4
0.3962,63.6
0.39640000000000003,63.6
0.3966,63.6
0.39680000000000004,63.6
0.397,63.4
0.3972,63.4
0.39740000000000003,63.4
0.3976,63.6
0.39780000000000004,63.6
0.398,63.6
0.3982,63.6
0.39840000000000003,63.4
0.3986,63.4
0.39880000000000004,63.6
0.399,63.4
0.3992,63.8
0.39940000000000003,63.6
0.3996,63.2
0.39980000000000004,63.6
0.4,63.4
0.4002,63.4
0.40040000000000003,63.4
0.4006,63.4
0.40080000000000005,63.4
0.401,63.4
0.4012,63.4
0.40140000000000003,63.6
0.4016,63.6
0.40180000000000005,63.4
0.402,63.2
0.4022,63.4
0.40240000000000004,63.6
0.4026,63.6
0.40280000000000005,63.6
0.403,63.4
0.4032,63.4
0.40340000000000004,63.6
0.4036,63.4
0.4038,63.4
0.404,63.4
0.4042,63.4
0.40440000000000004,63.4
0.4046,63.4
0.4048,63.4
0.405,63.6
0.4052,63.6
0.40540000000000004,63.2
0.4056,63.8
0.4058,63.4
0.406,63.6
0.4062,63.6
0.40640000000000004,63.4
0.4066,63.4
0.4068,63.6
0.40700000000000003,63.6
0.4072,63.4
0.40740000000000004,63.4
0.4076,63.4
0.4078,63.8
0.40800000000000003,63.4
0.4082,63.6
0.40840000000000004,63.6
0.4086,63.4
0.4088,63.4
0.40900000000000003,63.6
0.4092,63.6
0.40940000000000004,63.4
0.4096,63.4
0.4098,63.4
0.41000000000000003,63.6
0.4102,63.2
0.41040000000000004,63.6
0.4106,63.4
0.4108,63.4
0.41100000000000003,63.4
0.4112,63.4
0.41140000000000004,63.4
0.4116,63.4
0.4118,63.6
0.41200000000000003,63.6
0.4122,63.4
0.41240000000000004,63.6
0.4126,63.6
0.4128,63.4
0.41300000000000003,63.4
0.4132,63.4
0.41340000000000005,63.4
0.4136,63.6
0.4138,63.6
0.41400000000000003,63.6
0.4142,63.4
0.41440000000000005,63.4
0.4146,63.6
0.4148,63.6
0.41500000000000004,63.4
0.4152,63.6
0.41540000000000005,63.6
0.4156,63.4
0.4158,63.4
0.41600000000000004,63.6
0.4162,63.4
0.4164,63.6
0.4166,63.6
0.4168,63.4
0.41700000000000004,63.2
0.4172,63.4
0.4174,63.6
0.4176,63.6
0.4178,63.2
0.41800000000000004,63.6
0.4182,63.6
0.4184,63.6
0.4186,63.6
0.4188,63.6
0.41900000000000004,63.6
0.4192,63.6
0.4194,63.2
0.41960000000000003,63.6
0.4198,63.2
0.42000000000000004,63.6
0.4202,63.4
0.4204,63.2
0.42060000000000003,63.4
0.4208,63.6
0.42100000000000004,63.4
0.4212,63.6
0.4214,63.6
0.42160000000000003,63.6
0.4218,63.4
0.42200000000000004,63.6
0.4222,63.6
0.4224,63.6
0.42260000000000003,63.6
0.4228,63.4
0.42300000000000004,63.4
0.4232,63.6
0.4234,63.4
0.42360000000000003,63.4
0.4238,63.4
0.42400000000000004,63.2
0.4242,63.4
0.4244,63.4
0.42460000000000003,63.6
0.4248,63.6
0.42500000000000004,63.4
0.4252,63.4
0.4254,63.6
0.42560000000000003,63.4
0.4258,63.6
0.42600000000000005,63.4
0.4262,63.4
0.4264,63.4
0.42660000000000003,63.6
0.4268,63.6
0.42700000000000005,63.6
0.4272,63.4
0.4274,63.6
0.42760000000000004,63.4
0.4278,63.6
0.42800000000000005,63.8
0.4282,63.6
0.4284,63.2
0.42860000000000004,63.4
0.4288,63.6
0.42900000000000005,63.6
0.4292,63.4
0.4294,63.4
0.42960000000000004,63.2
0.4298,63.6
0.43,63.4
0.4302,63.4
0.4304,63.6
0.43060000000000004,63.6
0.4308,63.4
0.431,63.4
0.4312,63.6
0.4314,63.6
0.43160000000000004,63.6
0.4318,63.6
0.432,63.4
0.43220000000000003,63.4
0.4324,63.6
0.43260000000000004,63.4
0.4328,63.4
0.433,63.8
0.43320000000000003,63.4
0.4334,63.6
0.43360000000000004,63.4
0.4338,63.6
0.434,63.4
0.43420000000000003,63.6
0.4344,63.6
0.43460000000000004,63.4
0.4348,63.6
0.435,63.6
0.43520000000000003,63.6
0.4354,63.4
0.43560000000000004,63.4
0.4358,63.6
0.436,63.6
0.43620000000000003,63.4
0.4364,63.4
0.43660000000000004,63.4
0.4368,63.4
0.437,63.4
0.43720000000000003,63.4
0.4374,63.6
0.43760000000000004,63.6
0.4378,63.4
0.438,63.6
0.43820000000000003,63.6
0.4384,63.6
0.43860000000000005,63.4
0.4388,63.6
0.439,63.6
0.43920000000000003,63.4
0.4394,63.6
0.43960000000000005,63.4
0.4398,63.6
0.44,63.4
0.44020000000000004,63.4
0.4404,63.2
0.44060000000000005,63.8
0.4408,63.4
0.441,63.4
0.44120000000000004,63.6
0.4414,63.4
0.44160000000000005,63.6
0.4418,63.6
0.442,63.6
0.44220000000000004,63.6
0.4424,63.6
0.44260000000000005,63.4
0.4428,63.4
0.443,63.6
0.44320000000000004,63.4
0.4434,63.6
0.4436,63.4
0.44380000000000003,63.4
0.444,63.6
0.44420000000000004,63.4
0.4444,63.6
0.4446,63.6
0.44480000000000003,63.6
0.445,63.4
0.44520000000000004,63.4
0.4454,63.6
0.4456,63.6
0.44580000000000003,63.4
0.446,63.6
0.44620000000000004,63.6
0.4464,63.4
0.4466,63.6
0.44680000000000003,63.4
0.447,63.4
0.44720000000000004,63.6
0.4474,63.6
0.4476,63.6
0.44780000000000003,63.4
0.448,63.8
0.44820000000000004,63.4
0.4484,63.2
0.4486,63.4
0.44880000000000003,63.6
0.449,63.4
0.44920000000000004,63.4
0.4494,63.4
0.4496,63.4
0.44980000000000003,63.4
0.45,63.4
0.45020000000000004,63.4
0.4504,63.4
0.4506,63.4
0.45080000000000003,63.6
0.451,63.6
0.45120000000000005,63.4
0.4514,63.6
0.4516,63.6
0.45180000000000003,63.4
0.452,63.6
0.45220000000000005,63.4
0.4524,63.6
0.4526,63.4
0.45280000000000004,63.6
0.453,63.4
0.45320000000000005,63.6
0.4534,63.6
0.4536,63.6
0.45380000000000004,63.4
0.454,63.4
0.45420000000000005,63.4
0.4544,63.4
0.4546,63.6
0.45480000000000004,63.4
0.455,63.4
0.45520000000000005,63.4
0.4554,63.4
0.4556,63.6
0.45580000000000004,63.6
0.456,63.6
0.4562,63.6
0.45640000000000003,63.6
0.4566,63.4
0.45680000000000004,63.4
0.457,63.4
0.4572,63.6
0.45740000000000003,63.6
0.4576,63.4
0.45780000000000004,63.6
0.458,63.6
0.4582,63.6
0.45840000000000003,63.4
0.4586,63.6
0.45880000000000004,63.6
0.459,63.4
0.4592,63.6
0.45940000000000003,63.4
0.4596,63.6
0.45980000000000004,63.6
0.46,63.4
0.4602,63.4
0.46040000000000003,63.6
0.4606,63.4
0.46080000000000004,63.6
0.461,63.6
0.4612,63.6
0.46140000000000003,63.6
0.4616,63.4
0.46180000000000004,63.6
0.462,63.6
0.4622,63.4
0.46240000000000003,63.4
0.4626,63.4
0.46280000000000004,63.4
0.463,63.4
0.4632,63.6
0.46340000000000003,63.4
0.4636,63.2
0.46380000000000005,63.6
0.464,63.6
0.4642,63.4
0.46440000000000003,63.4
0.4646,63.4
0.46480000000000005,63.4
0.465,63.4
0.4652,63.6
0.46540000000000004,63.6
0.4656,63.6
0.46580000000000005,63.6
0.466,63.4
0.4662,63.6
0.46640000000000004,63.4
0.4666,63.6
0.46680000000000005,63.4
0.467,63.6
0.4672,63.6
0.46740000000000004,63.6
0.4676,63.6
0.46780000000000005,63.6
0.468,63.4
0.4682,63.2
0.46840000000000004,63.6
0.4686,63.6
0.46880000000000005,63.6
0.46900000000000003,63.4
0.4692,63.4
0.46940000000000004,63.6
0.4696,63.2
0.4698,63.8
0.47000000000000003,63.6
0.4702,63.4
0.47040000000000004,63.2
0.4706,63.6
0.4708,63.6
0.47100000000000003,63.4
0.4712,63.6
0.47140000000000004,63.6
0.4716,63.4
0.4718,63.6
0.47200000000000003,63.4
0.4722,63.6
0.47240000000000004,63.4
0.4726,63.6
0.4728,63.2
0.47300000000000003,63.4
0.4732,63.4
0.47340000000000004,63.8
0.4736,63.6
0.4738,63.6
0.47400000000000003,63.6
0.4742,63.4
0.47440000000000004,63.4
0.4746,63.6
0.4748,63.6
0.47500000000000003,63.4
0.4752,63.4
0.47540000000000004,63.6
0.4756,63.6
0.4758,63.4
0.47600000000000003,63.6
0.4762,63.4
0.47640000000000005,63.4
0.4766,63.6
0.4768,63.6
0.47700000000000004,63.4
0.4772,63.4
0.47740000000000005,63.4
0.4776,63.4
0.4778,63.4
0.47800000000000004,63.6
0.4782,63.6
0.47840000000000005,63.6
0.4786,63.4
0.4788,63.4
0.47900000000000004,63.6
0.4792,63.4
0.47940000000000005,63.4
0.4796,63.6
0.4798,63.4
0.48000000000000004,63.2
0.4802,63.4
0.48040000000000005,63.2
0.4806,63.6
0.4808,63.6
0.48100000000000004,63.6
0.4812,63.6
0.48140000000000005,63.2
0.48160000000000003,63.6
0.4818,63.6
0.48200000000000004,63.6
0.4822,63.4
0.4824,63.4
0.48260000000000003,63.6
0.4828,63.4
0.48300000000000004,63.4
0.4832,63.4
0.4834,63.4
0.48360000000000003,63.6
0.4838,63.6
0.48400000000000004,63.6
0.4842,63.6
0.4844,63.4
0.48460000000000003,63.4
0.4848,63.4
0.48500000000000004,63.4
0.4852,63.6
0.4854,63.6
0.48560000000000003,63.6
0.4858,63.6
0.48600000000000004,63.4
0.4862,63.4
0.4864,63.4
0.48660000000000003,63.2
0.4868,63.4
0.48700000000000004,63.6
0.4872,63.6
0.4874,63.6
0.48760000000000003,63.2
0.4878,63.2
0.48800000000000004,63.4
0.4882,63.6
0.4884,63.6
0.48860000000000003,63.6
0.4888,63.2
0.48900000000000005,63.4
0.4892,63.6
0.4894,63.4
0.48960000000000004,63.6
0.4898,63.4
0.49000000000000005,63.6
0.4902,63.4
0.4904,63.4
0.49060000000000004,63.4
0.4908,63.4
0.49100000000000005,63.6
0.4912,63.4
0.4914,63.6
0.49160000000000004,63.6
0.4918,63.6
0.49200000000000005,63.6
0.4922,63.6
0.4924,63.6
0.49260000000000004,63.6
0.4928,63.4
0.49300000000000005,63.6
0.4932,63.6
0.4934,63.2
0.49360000000000004,63.6
0.4938,63.6
0.49400000000000005,63.6
0.49420000000000003,63.6
0.4944,63.6
0.49460000000000004,63.4
0.4948,63.4
0.49500000000000005,63.4
0.49520000000000003,63.4
0.4954,63.4
0.49560000000000004,63.4
0.4958,63.6
0.496,63.6
0.49620000000000003,63.2
0.4964,63.4
0.49660000000000004,63.6
0.4968,63.4
0.497,63.6
0.49720000000000003,63.6
0.4974,63.6
0.49760000000000004,63.6
0.4978,63.6
0.498,63.4
0.49820000000000003,63.6
0.4984,63.6
0.49860000000000004,63.4
0.4988,63.8
0.499,63.2
0.49920000000000003,63.4
0.4994,63.6
0.49960000000000004,63.4
0.4998,63.4
0.5,63.6
0.5002,63.4
0.5004000000000001,63.6
0.5006,63.6
0.5008,63.6
0.501,63.6
0.5012,63.6
0.5014000000000001,63.6
0.5016,63.6
0.5018,63.4
0.502,63.4
0.5022,63.2
0.5024000000000001,63.4
0.5026,63.6
0.5028,63.6
0.503,63.4
0.5032,63.6
0.5034000000000001,63.6
0.5036,63.6
0.5038,63.4
0.504,63.4
0.5042,63.4
0.5044000000000001,63.4
0.5046,63.6
0.5048,63.6
0.505,63.4
0.5052,63.6
0.5054000000000001,63.4
0.5056,63.6
0.5058,63.4
0.506,63.8
0.5062,63.4
0.5064000000000001,63.4
0.5066,63.6
0.5068,63.6
0.507,63.6
0.5072,63.6
0.5074000000000001,63.6
0.5076,63.2
0.5078,63.4
0.508,63.6
0.5082,63.6
0.5084000000000001,63.4
0.5086,63.4
0.5088,63.4
0.509,63.4
0.5092,63.2
0.5094000000000001,63.4
0.5096,63.4
0.5098,63.6
0.51,63.4
0.5102,63.2
0.5104000000000001,63.4
0.5106,63.4
0.5108,63.4
0.511,63.6
0.5112,63.4
0.5114000000000001,63.2
0.5116,63.4
0.5118,63.4
0.512,63.4
0.5122,63.4
0.5124000000000001,63.4
0.5126000000000001,63.6
0.5128,63.6
0.513,63.6
0.5132,63.4
0.5134000000000001,63.4
0.5136000000000001,63.6
0.5138,63.6
0.514,63.6
0.5142,63.6
0.5144000000000001,63.4
0.5146000000000001,63.6
0.5148,63.4
0.515,63.6
0.5152,63.6
0.5154,63.6
0.5156000000000001,63.6
0.5158,63.4
0.516,63.4
0.5162,63.4
0.5164,63.6
0.5166000000000001,63.6
0.5168,63.4
0.517,63.2
0.5172,63.6
0.5174,63.4
0.5176000000000001,63.6
0.5178,63.4
0.518,63.6
0.5182,63.6
0.5184,63.4
0.5186000000000001,63.4
0.5188,63.4
0.519,63.4
0.5192,63.4
0.5194,63.2
0.5196000000000001,63.4
0.5198,63.4
0.52,63.4
0.5202,63.6
0.5204,63.6
0.5206000000000001,63.6
0.5208,63.4
0.521,63.6
0.5212,63.6
0.5214,63.6
0.5216000000000001,63.6
0.5218,63.4
0.522,63.4
0.5222,63.6
0.5224,63.4
0.5226000000000001,63.4
0.5228,63.4
0.523,63.4
0.5232,63.6
0.5234,63.4
0.5236000000000001,63.6
0.5238,63.6
0.524,63.6
0.5242,63.4
0.5244,63.4
0.5246000000000001,63.6
0.5248,63.6
0.525,63.6
0.5252,63.6
0.5254,63.6
0.5256000000000001,63.4
0.5258,63.6
0.526,63.4
0.5262,63.4
0.5264,63.6
0.5266000000000001,63.6
0.5268,63.6
0.527,63.6
0.5272,63.6
0.5274,63.4
0.5276000000000001,63.4
0.5278,63.6
0.528,63.6
0.5282,63.4
0.5284,63.4
0.5286000000000001,63.4
0.5288,63.6
0.529,63.4
0.5292,63.6
0.5294,63.4
0.5296000000000001,63.4
0.5298,63.6
0.53,63.6
0.5302,63.6
0.5304,63.6
0.5306000000000001,63.6
0.5308,63.6
0.531,63.6
0.5312,63.4
0.5314,63.6
0.5316000000000001,63.6
0.5318,63.4
0.532,63.4
0.5322,63.4
0.5324,63.4
0.5326000000000001,63.6
0.5328,63.6
0.533,63.4
0.5332,63.8
0.5334,63.4
0.5336000000000001,63.2
0.5338,63.6
0.534,63.6
0.5342,63.4
0.5344,63.4
0.5346000000000001,63.4
0.5348,63.4
0.535,63.6
0.5352,63.6
0.5354,63.6
0.5356000000000001,63.4
0.5358,63.6
0.536,63.4
0.5362,63.6
0.5364,63.4
0.5366000000000001,63.4
0.5368,63.6
0.537,63.6
0.5372,63.4
0.5374,63.6
0.5376000000000001,63.4
0.5378000000000001,63.6
0.538,63.6
0.5382,63.4
0.5384,63.6
0.5386000000000001,63.4
0.5388000000000001,63.2
0.539,63.6
0.5392,63.4
0.5394,63.4
0.5396000000000001,63.8
0.5398000000000001,63.4
0.54,63.6
0.5402,63.6
0.5404,63.6
0.5406000000000001,63.4
0.5408000000000001,63.6
0.541,63.6
0.5412,63.6
0.5414,63.4
0.5416000000000001,63.4
0.5418000000000001,63.2
0.542,63.6
0.5422,63.2
0.5424,63.4
0.5426,63.4
0.5428000000000001,63.4
0.543,63.6
0.5432,63.6
0.5434,63.4
0.5436,63.6
0.5438000000000001,63.6
0.544,63.4
0.5442,63.6
0.5444,63.6
0.5446,63.6
0.5448000000000001,63.4
0.545,63.6
0.5452,63.6
0.5454,63.4
0.5456,63.6
0.5458000000000001,63.2
0.546,63.6
0.5462,63.6
0.5464,63.6
0.5466,63.8
0.5468000000000001,63.6
0.547,63.6
0.5472,63.2
0.5474,63.4
0.5476,63.6
0.5478000000000001,63.6
0.548,63.4
0.5482,63.6
0.5484,63.2
0.5486,63.6
0.5488000000000001,63.4
0.549,63.6
0.5492,63.4
0.5494,63.6
0.5496,63.2
0.5498000000000001,63.4
0.55,63.6
0.5502,63.6
0.5504,63.8
0.5506,63.4
0.5508000000000001,63.4
0.551,63.4
0.5512,63.6
0.5514,63.6
0.5516,63.4
0.5518000000000001,63.4
0.552,63.4
0.5522,63.6
0.5524,63.4
0.5526,63.6
0.5528000000000001,63.4
0.553,63.4
0.5532,63.4
0.5534,63.4
0.5536,63.6
0.5538000000000001,63.6
0.554,63.6
0.5542,63.4
0.5544,63.6
0.5546,63.4
0.5548000000000001,63.6
0.555,63.6
0.5552,63.4
0.5554,63.4
0.5556,63.4
0.5558000000000001,63.4
0.556,63.6
0.5562,63.4
0.5564,63.6
0.5566,63.6
0.5568000000000001,63.4
0.557,63.4
0.5572,63.4
0.5574,63.4
0.5576,63.6
0.5578000000000001,63.4
0.558,63.4
0.5582,63.4
0.5584,63.6
0.5586,63.4
0.5588000000000001,63.6
0.559,63.2
0.5592,63.2
0.5594,63.4
0.5596,63.4
0.5598000000000001,63.6
0.56,63.6
0.5602,63.6
0.5604,63.4
0.5606,63.6
0.5608000000000001,63.6
0.561,63.4
0.5612,63.6
0.5614,63.4
0.5616,63.4
0.5618000000000001,63.6
0.562,63.2
0.5622,63.6
0.5624,63.2
0.5626,63.4
0.5628000000000001,63.6
0.5630000000000001,63.4
0.5632,63.6
0.5634,63.6
0.5636,63.6
0.5638000000000001,63.2
0.5640000000000001,63.4
0.5642,63.6
0.5644,63.4
0.5646,63.6
0.5648000000000001,63.4
0.5650000000000001,63.4
0.5652,63.6
0.5654,63.4
0.5656,63.4
0.5658000000000001,63.4
0.5660000000000001,63.6
0.5662,63.6
0.5664,63.6
0.5666,63.4
0.5668000000000001,63.4
0.5670000000000001,63.2
0.5672,63.4
0.5674,63.6
0.5676,63.6
0.5678000000000001,63.4
0.5680000000000001,63.4
0.5682,63.4
0.5684,63.4
0.5686,63.4
0.5688,63.6
0.5690000000000001,63.4
0.5692,63.4
0.5694,63.4
0.5696,63.4
0.5698,63.6
0.5700000000000001,63.4
0.5702,63.4
0.5704,63.6
0.5706,63.4
0.5708,63.6
0.5710000000000001,63.2
0.5712,63.4
0.5714,63.4
0.5716,63.4
0.5718,63.4
0.5720000000000001,63.8
0.5722,63.6
0.5724,63.6
0.5726,63.2
0.5728,63.8
0.5730000000000001,63.6
0.5732,63.4
0.5734,63.6
0.5736,63.4
0.5738,63.6
0.5740000000000001,63.4
0.5742,63.4
0.5744,63.6
0.5746,63.4
0.5748,63.6
0.5750000000000001,63.4
0.5752,63.4
0.5754,63.4
0.5756,63.4
0.5758,63.4
0.5760000000000001,63.8
0.5762,63.6
0.5764,63.6
0.5766,63.6
0.5768,63.4
0.5770000000000001,63.6
0.5772,63.4
0.5774,63.6
0.5776,63.6
0.5778,63.2
0.5780000000000001,63.6
0.5782,63.4
0.5784,63.4
0.5786,63.6
0.5788,63.4
0.5790000000000001,63.4
0.5792,63.4
0.5794,63.4
0.5796,63.6
0.5798,63.6
0.5800000000000001,63.4
0.5802,63.4
0.5804,63.6
0.5806,63.6
0.5808,63.4
0.5810000000000001,63.4
0.5812,63.2
0.5814,63.4
0.5816,63.6
0.5818,63.4
0.5820000000000001,63.6
0.5822,63.2
0.5824,63.6
0.5826,63.6
0.5828,63.4
0.5830000000000001,63.4
0.5832,63.6
0.5834,63.4
0.5836,63.2
0.5838,63.6
0.5840000000000001,63.4
0.5842,63.6
0.5844,63.6
0.5846,63.4
0.5848,63.4
0.5850000000000001,63.4
0.5852,63.6
0.5854,63.6
0.5856,63.6
0.5858,63.4
0.5860000000000001,63.4
0.5862,63.4
0.5864,63.6
0.5866,63.6
0.5868,63.4
0.5870000000000001,63.4
0.5872,63.6
0.5874,63.6
0.5876,63.4
0.5878,63.4
0.5880000000000001,63.4
0.5882000000000001,63.6
0.5884,63.4
0.5886,63.4
0.5888,63.4
0.5890000000000001,63.4
0.5892000000000001,63.6
0.5894,63.4
0.5896,63.4
0.5898,63.6
0.5900000000000001,63.4
0.5902000000000001,63.4
0.5904,63.4
0.5906,63.6
0.5908,63.6
0.5910000000000001,63.4
0.5912000000000001,63.4
0.5914,63.6
0.5916,63.4
0.5918,63.6
0.5920000000000001,63.6
0.5922000000000001,63.4
0.5924,63.4
0.5926,63.6
0.5928,63.6
0.5930000000000001,63.4
0.5932000000000001,63.6
0.5934,63.4
0.5936,63.6
0.5938,63.4
0.5940000000000001,63.2
0.5942000000000001,63.6
0.5944,63.8
0.5946,63.6
0.5948,63.6
0.595,63.4
0.5952000000000001,63.6
0.5954,63.4
0.5956,63.6
0.5958,63.4
0.596,63.6
0.5962000000000001,63.6
0.5964,63.6
0.5966,63.4
0.5968,63.6
0.597,63.4
0.5972000000000001,63.6
0.5974,63.4
0.5976,63.4
0.5978,63.8
0.598,63.4
0.5982000000000001,63.6
0.5984,63.2
0.5986,63.4
0.5988,63.4
0.599,63.4
0.5992000000000001,63.4
0.5994,63.6
0.5996,63.6
0.5998,63.8
0.6,63.4
0.6002000000000001,63.6
0.6004,63.4
0.6006,63.4
0.6008,63.4
0.601,63.4
0.6012000000000001,63.4
0.6014,63.4
0.6016,63.4
0.6018,63.4
0.602,63.4
0.6022000000000001,63.4
0.6024,63.4
0.6026,63.6
0.6028,63.4
0.603,63.6
0.6032000000000001,63.6
0.6034,63.4
0.6036,63.6
0.6038,63.6
0.604,63.4
0.6042000000000001,63.6
0.6044,63.4
0.6046,63.6
0.6048,63.6
0.605,63.6
0.6052000000000001,63.4
0.6054,63.4
0.6056,63.6
0.6058,63.6
0.606,63.6
0.6062000000000001,63.6
0.6064,63.6
0.6066,63.4
0.6068,63.4
0.607,63.6
0.6072000000000001,63.4
0.6074,63.4
0.6076,63.4
0.6078,63.4
0.608,63.6
0.6082000000000001,63.4
0.6084,63.6
0.6086,63.4
0.6088,63.4
0.609,63.6
0.6092000000000001,63.4
0.6094,63.6
0.6096,63.4
0.6098,63.6
0.61,63.6
0.6102000000000001,63.4
0.6104,63.6
0.6106,63.6
0.6108,63.6
0.611,63.4
0.6112000000000001,63.8
0.6114,63.4
0.6116,63.4
0.6118,63.4
0.612,63.6
0.6122000000000001,63.4
0.6124,63.6
0.6126,63.4
0.6128,63.4
0.613,63.4
0.6132000000000001,63.4
0.6134000000000001,63.6
0.6136,63.4
0.6138,63.4
0.614,63.4
0.6142000000000001,63.4
0.6144000000000001,63.6
0.6146,63.6
0.6148,63.4
0.615,63.4
0.6152000000000001,63.4
0.6154000000000001,63.6
0.6156,63.4
0.6158,63.6
0.616,63.4
0.6162000000000001,63.4
0.6164000000000001,63.4
0.6166,63.6
0.6168,63.6
0.617,63.8
0.6172000000000001,63.6
0.6174000000000001,63.4
0.6176,63.6
0.6178,63.2
0.618,63.4
0.6182000000000001,63.4
0.6184000000000001,63.4
0.6186,63.4
0.6188,63.6
0.619,63.4
0.6192000000000001,63.4
0.6194000000000001,63.6
0.6196,63.8
0.6198,63.4
0.62,63.6
0.6202000000000001,63.4
0.6204000000000001,63.6
0.6206,63.4
0.6208,63.4
0.621,63.4
0.6212,63.6
0.6214000000000001,63.4
0.6216,63.6
0.6218,63.4
0.622,63.4
0.6222,63.6
0.6224000000000001,63.6
0.6226,63.4
0.6228,63.6
0.623,63.6
0.6232,63.4
0.6234000000000001,63.4
0.6236,63.6
0.6238,63.8
0.624,63.6
0.6242,63.6
0.6244000000000001,63.6
0.6246,63.8
0.6248,63.6
0.625,63.4
0.6252,63.4
0.6254000000000001,63.4
0.6256,63.4
0.6258,63.6
0.626,63.6
0.6262,63.4
0.6264000000000001,63.4
0.6266,63.4
0.6268,63.6
0.627,63.6
0.6272,63.4
0.6274000000000001,63.4
0.6276,63.4
0.6278,63.4
0.628,63.4
0.6282,63.6
0.6284000000000001,63.2
0.6286,63.4
0.6288,63.2
0.629,63.4
0.6292,63.6
0.6294000000000001,63.4
0.6296,63.6
0.6298,63.6
0.63,63.2
0.6302,63.4
0.6304000000000001,63.6
0.6306,63.8
0.6308,63.4
0.631,63.6
0.6312,63.4
0.6314000000000001,63.6
0.6316,63.6
0.6318,63.4
0.632,63.2
0.6322,63.6
0.6324000000000001,63.4
0.6326,63.4
0.6328,63.6
0.633,63.6
0.6332,63.6
0.6334000000000001,63.4
0.6336,63.4
0.6338,63.4
0.634,63.6
0.6342,63.4
0.6344000000000001,63.4
0.6346,63.4
0.6348,63.4
0.635,63.4
0.6352,63.6
0.6354000000000001,63.6
0.6356,63.6
0.6358,63.4
0.636,63.6
0.6362,63.4
0.6364000000000001,63.6
0.6366,63.4
0.6368,63.4
0.637,63.6
0.6372,63.4
0.6374000000000001,63.6
0.6376000000000001,63.4
0.6378,63.4
0.638,63.4
0.6382,63.4
0.6384000000000001,63.2
0.6386000000000001,63.6
0.6388,63.4
0.639,63.6
0.6392,63.6
0.6394000000000001,63.4
0.6396000000000001,63.4
0.6398,63.4
0.64,63.4
0.6402,63.4
0.6404000000000001,63.4
0.6406000000000001,63.4
0.6408,63.4
0.641,63.6
0.6412,63.4
0.6414000000000001,63.6
0.6416000000000001,63.4
0.6418,63.4
0.642,63.4
0.6422,63.4
0.6424000000000001,63.4
0.6426000000000001,63.6
0.6428,63.4
0.643,63.2
0.6432,63.4
0.6434000000000001,63.4
0.6436000000000001,63.6
0.6438,63.4
0.644,63.6
0.6442,63.6
0.6444000000000001,63.4
0.6446000000000001,63.6
0.6448,63.4
0.645,63.6
0.6452,63.6
0.6454000000000001,63.4
0.6456000000000001,63.6
0.6458,63.6
0.646,63.6
0.6462,63.2
0.6464000000000001,63.2
0.6466000000000001,63.8
0.6468,63.6
0.647,63.6
0.6472,63.4
0.6474000000000001,63.4
0.6476000000000001,63.4
0.6478,63.4
0.648,63.6
0.6482,63.4
0.6484,63.4
0.6486000000000001,63.2
0.6488,63.4
0.649,63.4
0.6492,63.4
0.6494,63.4
0.6496000000000001,63.6
0.6498,63.2
0.65,63.6
0.6502,63.6
0.6504,63.6
0.6506000000000001,63.4
0.6508,63.6
0.651,63.6
0.6512,63.6
0.6514,63.6
0.6516000000000001,63.6
0.6518,63.6
0.652,63.4
0.6522,63.6
0.6524,63.6
0.6526000000000001,63.6
0.6528,63.6
0.653,63.6
0.6532,63.6
0.6534,63.4
0.6536000000000001,63.6
0.6538,63.6
0.654,63.6
0.6542,63.6
0.6544,63.6
0.6546000000000001,63.2
0.6548,63.4
0.655,63.6
0.6552,63.6
0.6554,63.6
0.6556000000000001,63.6
0.6558,63.6
0.656,63.4
0.6562,63.6
0.6564,63.6
0.6566000000000001,63.6
0.6568,63.4
0.657,63.2
0.6572,63.4
0.6574,63.4
0.6576000000000001,63.6
0.6578,63.4
0.658,63.4
0.6582,63.4
0.6584,63.6
0.6586000000000001,63.4
0.6588,63.6
0.659,63.4
0.6592,63.4
0.6594,63.2
0.6596000000000001,63.4
0.6598,63.4
0.66,63.6
0.6602,63.4
0.6604,63.4
0.6606000000000001,63.4
0.6608,63.6
0.661,63.4
0.6612,63.6
0.6614,63.4
0.6616000000000001,63.4
0.6618,63.6
0.662,63.6
0.6622,63.2
0.6624,63.6
0.6626000000000001,63.4
0.6628000000000001,63.4
0.663,63.4
0.6632,63.6
0.6634,63.4
0.6636000000000001,63.6
0.6638000000000001,63.4
0.664,63.4
0.6642,63.6
0.6644,63.6
0.6646000000000001,63.4
0.6648000000000001,63.4
0.665,63.6
0.6652,63.4
0.6654,63.4
0.6656000000000001,63.6
0.6658000000000001,63.6
0.666,63.2
0.6662,63.4
0.6664,63.8
0.6666000000000001,63.6
0.6668000000000001,63.4
0.667,63.4
0.6672,63.4
0.6674,63.4
0.6676000000000001,63.4
0.6678000000000001,63.6
0.668,63.2
0.6682,63.4
0.6684,63.4
0.6686000000000001,63.4
0.6688000000000001,63.6
0.669,63.2
0.6692,63.6
0.6694,63.6
0.6696000000000001,63.4
0.6698000000000001,63.6
0.67,63.6
0.6702,63.4
0.6704,63.6
0.6706000000000001,63.4
0.6708000000000001,63.4
0.671,63.6
0.6712,63.4
0.6714,63.6
0.6716000000000001,63.6
0.6718000000000001,63.6
0.672,63.6
0.6722,63.4
0.6724,63.6
0.6726000000000001,63.4
0.6728000000000001,63.4
0.673,63.4
0.6732,63.4
0.6734,63.4
0.6736000000000001,63.4
0.6738000000000001,63.6
0.674,63.4
0.6742,63.4
0.6744,63.4
0.6746,63.4
0.6748000000000001,63.6
0.675,63.4
0.6752,63.6
0.6754,63.6
0.6756,63.4
0.6758000000000001,63.6
0.676,63.6
0.6762,63.4
0.6764,63.6
0.6766,63.6
0.6768000000000001,63.6
0.677,63.4
0.6772,63.4
0.6774,63.4
0.6776,63.4
0.6778000000000001,63.4
0.678,63.4
0.6782,63.6
0.6784,63.2
0.6786,63.6
0.6788000000000001,63.6
0.679,63.6
0.6792,63.4
0.6794,63.6
0.6796,63.6
0.6798000000000001,63.4
0.68,63.6
0.6802,63.4
0.6804,63.4
0.6806,63.4
0.6808000000000001,63.4
0.681,63.6
0.6812,63.4
0.6814,63.4
0.6816,63.6
0.6818000000000001,63.4
0.682,63.4
0.6822,63.4
0.6824,63.4
0.6826,63.4
0.6828000000000001,63.6
0.683,63.4
0.6832,63.4
0.6834,63.6
0.6836,63.6
0.6838000000000001,63.6
0.684,63.6
0.6842,63.6
0.6844,63.6
0.6846,63.4
0.6848000000000001,63.6
0.685,63.6
0.6852,63.4
0.6854,63.4
0.6856,63.6
0.6858000000000001,63.2
0.686,63.4
0.6862,63.6
0.6864,63.6
0.6866,63.6
0.6868000000000001,63.6
0.687,63.4
0.6872,63.6
0.6874,63.4
0.6876,63.6
0.6878000000000001,63.4
0.6880000000000001,63.4
0.6882,63.4
0.6884,63.6
0.6886,63.6
0.6888000000000001,63.6
0.6890000000000001,63.6
0.6892,63.6
0.6894,63.2
0.6896,63.6
0.6898000000000001,63.6
0.6900000000000001,63.6
0.6902,63.2
0.6904,63.4
0.6906,63.4
0.6908000000000001,63.4
0.6910000000000001,63.6
0.6912,63.4
0.6914,63.6
0.6916,63.6
0.6918000000000001,63.4
0.6920000000000001,63.4
0.6922,63.6
0.6924,63.6
0.6926,63.4
0.6928000000000001,63.4
0.6930000000000001,63.4
0.6932,63.6
0.6934,63.6
0.6936,63.6
0.6938000000000001,63.4
0.6940000000000001,63.4
0.6942,63.4
0.6944,63.4
0.6946,63.4
0.6948000000000001,63.6
0.6950000000000001,63.6
0.6952,63.4
0.6954,63.6
0.6956,63.4
0.6958000000000001,63.6
0.6960000000000001,63.4
0.6962,63.6
0.6964,63.4
0.6966,63.4
0.6968000000000001,63.6
0.6970000000000001,63.4
0.6972,63.4
0.6974,63.6
0.6976,63.2
0.6978000000000001,63.4
0.6980000000000001,63.6
0.6982,63.4
0.6984,63.4
0.6986,63.4
0.6988000000000001,63.6
0.6990000000000001,63.4
0.6992,63.6
0.6994,63.4
0.6996,63.6
0.6998000000000001,63.4
0.7000000000000001,63.4
0.7002,63.2
0.7004,63.6
0.7006,63.4
0.7008,63.4
0.7010000000000001,63.2
0.7012,63.4
0.7014,63.8
0.7016,63.4
0.7018,63.2
0.7020000000000001,63.6
0.7022,63.4
0.7024,63.2
0.7026,63.4
0.7028,63.8
0.7030000000000001,63.4
0.7032,63.6
0.7034,63.4
0.7036,63.4
0.7038,63.6
0.7040000000000001,63.6
0.7042,63.6
0.7044,63.2
0.7046,63.4
0.7048,63.4
0.7050000000000001,63.6
0.7052,63.4
0.7054,63.6
0.7056,63.2
0.7058,63.2
0.7060000000000001,63.6
0.7062,63.4
0.7064,63.4
0.7066,63.4
0.7068,63.4
0.7070000000000001,63.4
0.7072,63.4
0.7074,63.4
0.7076,63.2
0.7078,63.4
0.7080000000000001,63.2
0.7082,63.4
0.7084,63.6
0.7086,63.6
0.7088,63.6
0.7090000000000001,63.4
0.7092,63.2
0.7094,63.8
0.7096,63.6
0.7098,63.6
0.7100000000000001,63.4
0.7102,63.6
0.7104,63.4
0.7106,63.6
0.7108,63.4
0.7110000000000001,63.4
0.7112,63.4
0.7114,63.4
0.7116,63.4
0.7118,63.4
0.7120000000000001,63.6
0.7122,63.4
0.7124,63.6
0.7126,63.4
0.7128,63.4
0.7130000000000001,63.6
0.7132000000000001,63.6
0.7134,63.6
0.7136,63.4
0.7138,63.4
0.7140000000000001,63.2
0.7142000000000001,63.6
0.7144,63.6
0.7146,63.6
0.7148,63.4
0.7150000000000001,63.6
0.7152000000000001,63.6
0.7154,63.4
0.7156,63.4
0.7158,63.6
0.7160000000000001,63.6
0.7162000000000001,63.6
0.7164,63.4
0.7166,63.6
0.7168,63.4
0.7170000000000001,63.4
0.7172000000000001,63.4
0.7174,63.6
0.7176,63.2
0.7178,63.6
0.7180000000000001,63.4
0.7182000000000001,63.6
0.7184,63.6
0.7186,63.6
0.7188,63.6
0.7190000000000001,63.4
0.7192000000000001,63.6
0.7194,63.6
0.7196,63.4
0.7198,63.4
0.7200000000000001,63.4
0.7202000000000001,63.4
0.7204,63.6
0.7206,63.4
0.7208,63.2
0.7210000000000001,63.4
0.7212000000000001,63.6
0.7214,63.2
0.7216,63.4
0.7218,63.4
0.7220000000000001,63.4
0.7222000000000001,63.4
0.7224,63.4
0.7226,63.6
0.7228,63.4
0.7230000000000001,63.4
0.7232000000000001,63.4
0.7234,63.4
0.7236,63.6
0.7238,63.8
0.7240000000000001,63.6
0.7242000000000001,63.2
0.7244,63.6
0.7246,63.6
0.7248,63.6
0.7250000000000001,63.6
0.7252000000000001,63.6
0.7254,63.4
0.7256,63.2
0.7258,63.6
0.7260000000000001,63.6
0.7262000000000001,63.4
0.7264,63.6
0.7266,63.4
0.7268,63.6
0.727,63.4
0.7272000000000001,63.8
0.7274,63.4
0.7276,63.6
0.7278,63.4
0.728,63.4
0.7282000000000001,63.4
0.7284,63.4
0.7286,63.6
0.7288,63.6
0.729,63.4
0.7292000000000001,63.6
0.7294,63.6
0.7296,63.4
0.7298,63.4
0.73,63.6
0.7302000000000001,63.4
0.7304,63.6
0.7306,63.4
0.7308,63.6
0.731,63.4
0.7312000000000001,63.6
0.7314,63.6
0.7316,63.4
0.7318,63.4
0.732,63.4
0.7322000000000001,63.6
0.7324,63.6
0.7326,63.4
0.7328,63.6
0.733,63.4
0.7332000000000001,63.6
0.7334,63.4
0.7336,63.4
0.7338,63.2
0.734,63.4
0.7342000000000001,63.6
0.7344,63.6
0.7346,63.4
0.7348,63.4
0.735,63.6
0.7352000000000001,63.4
0.7354,63.6
0.7356,63.6
0.7358,63.6
0.736,63.6
0.7362000000000001,63.4
0.7364,63.6
0.7366,63.4
0.7368,63.6
0.737,63.6
0.7372000000000001,63.4
0.7374,63.4
0.7376,63.6
0.7378,63.4
0.738,63.6
0.7382000000000001,63.8
0.7384000000000001,63.6
0.7386,63.4
0.7388,63.6
0.739,63.4
0.7392000000000001,63.4
0.7394000000000001,63.6
0.7396,63.4
0.7398,63.4
0.74,63.6
0.7402000000000001,63.4
0.7404000000000001,63.4
0.7406,63.4
0.7408,63.4
0.741,63.4
0.7412000000000001,63.6
0.7414000000000001,63.4
0.7416,63.6
0.7418,63.6
0.742,63.4
0.7422000000000001,63.4
0.7424000000000001,63.6
0.7426,63.6
0.7428,63.6
0.743,63.6
0.7432000000000001,63.4
0.7434000000000001,63.8
0.7436,63.4
0.7438,63.4
0.744,63.4
0.7442000000000001,63.6
0.7444000000000001,63.6
0.7446,63.6
0.7448,63.6
0.745,63.4
0.7452000000000001,63.4
0.7454000000000001,63.6
0.7456,63.6
0.7458,63.6
0.746,63.4
0.7462000000000001,63.4
0.7464000000000001,63.4
0.7466,63.6
0.7468,63.4
0.747,63.6
0.7472000000000001,63.2
0.7474000000000001,63.6
0.7476,63.2
0.7478,63.6
0.748,63.6
0.7482000000000001,63.4
0.7484000000000001,63.6
0.7486,63.6
0.7488,63.4
0.749,63.6
0.7492000000000001,63.6
0.7494000000000001,63.6
0.7496,63.4
0.7498,63.6
0.75,63.4
0.7502000000000001,63.6
0.7504000000000001,63.4
0.7506,63.6
0.7508,63.4
0.751,63.6
0.7512000000000001,63.6
0.7514000000000001,63.4
0.7516,63.4
0.7518,63.4
0.752,63.6
0.7522000000000001,63.4
0.7524000000000001,63.6
0.7526,63.4
0.7528,63.4
0.753,63.6
0.7532,63.6
0.7534000000000001,63.4
0.7536,63.4
0.7538,63.6
0.754,63.6
0.7542,63.6
0.7544000000000001,63.6
0.7546,63.6
0.7548,63.6
0.755,63.4
0.7552,63.6
0.7554000000000001,63.6
0.7556,63.6
0.7558,63.6
0.756,63.4
0.7562,63.6
0.7564000000000001,63.4
0.7566,63.4
0.7568,63.4
0.757,63.2
0.7572,63.4
0.7574000000000001,63.6
0.7576,63.2
0.7578,63.6
0.758,63.6
0.7582,63.4
0.7584000000000001,63.6
0.7586,63.4
0.7588,63.4
0.759,63.6
0.7592,63.4
0.7594000000000001,63.4
0.7596,63.4
0.7598,63.6
0.76,63.4
0.7602,63.4
0.7604000000000001,63.4
0.7606,63.4
0.7608,63.4
0.761,63.4
0.7612,63.4
0.7614000000000001,63.4
0.7616,63.6
0.7618,63.2
0.762,63.6
0.7622,63.6
0.7624000000000001,63.6
0.7626000000000001,63.6
0.7628,63.4
0.763,63.4
0.7632,63.4
0.7634000000000001,63.6
0.7636000000000001,63.4
0.7638,63.4
0.764,63.6
0.7642,63.6
0.7644000000000001,63.6
0.7646000000000001,63.6
0.7648,63.6
0.765,63.4
0.7652,63.4
0.7654000000000001,63.6
0.7656000000000001,63.6
0.7658,63.4
0.766,63.4
0.7662,63.2
0.7664000000000001,63.6
0.7666000000000001,63.4
0.7668,63.4
0.767,63.2
0.7672,63.6
0.7674000000000001,63.4
0.7676000000000001,63.4
0.7678,63.4
0.768,63.4
0.7682,63.6
0.7684000000000001,63.4
0.7686000000000001,63.4
0.7688,63.6
0.769,63.6
0.7692,63.6
0.7694000000000001,63.2
0.7696000000000001,63.6
0.7698,63.4
0.77,63.6
0.7702,63.6
0.7704000000000001,63.4
0.7706000000000001,63.6
0.7708,63.4
0.771,63.4
0.7712,63.6
0.7714000000000001,63.6
0.7716000000000001,63.6
0.7718,63.6
0.772,63.6
0.7722,63.2
0.7724000000000001,63.6
0.7726000000000001,63.6
0.7728,63.6
0.773,63.4
0.7732,63.6
0.7734000000000001,63.4
0.7736000000000001,63.4
0.7738,63.4
0.774,63.6
0.7742,63.6
0.7744000000000001,63.4
0.7746000000000001,63.6
0.7748,63.4
0.775,63.6
0.7752,63.4
0.7754000000000001,63.6
0.7756000000000001,63.4
0.7758,63.4
0.776,63.6
0.7762,63.4
0.7764000000000001,63.4
0.7766000000000001,63.4
0.7768,63.4
0.777,63.4
0.7772,63.4
0.7774000000000001,63.2
0.7776000000000001,63.6
0.7778,63.6
0.778,63.6
0.7782,63.6
0.7784000000000001,63.4
0.7786000000000001,63.4
0.7788,63.6
0.779,63.4
0.7792,63.4
0.7794000000000001,63.2
0.7796000000000001,63.4
0.7798,63.4
0.78,63.4
0.7802,63.4
0.7804,63.4
0.7806000000000001,63.6
0.7808,63.4
0.781,63.4
0.7812,63.6
0.7814,63.4
0.7816000000000001,63.4
0.7818,63.4
0.782,63.6
0.7822,63.4
0.7824,63.4
0.7826000000000001,63.4
0.7828,63.6
0.783,63.4
0.7832,63.6
0.7834,63.6
0.7836000000000001,63.4
0.7838,63.6
0.784,63.4
0.7842,63.6
0.7844,63.6
0.7846000000000001,63.4
0.7848,63.4
0.785,63.2
0.7852,63.4
0.7854,63.4
0.7856000000000001,63.2
0.7858,63.4
0.786,63.4
0.7862,63.4
0.7864,63.4
0.7866000000000001,63.6
0.7868,63.2
0.787,63.4
0.7872,63.2
0.7874,63.6
0.7876000000000001,63.4
0.7878000000000001,63.4
0.788,63.6
0.7882,63.6
0.7884,63.4
0.7886000000000001,63.4
0.7888000000000001,63.4
0.789,63.4
0.7892,63.4
0.7894,63.6
0.7896000000000001,63.4
0.7898000000000001,63.4
0.79,63.6
0.7902,63.4
0.7904,63.4
0.7906000000000001,63.4
0.7908000000000001,63.4
0.791,63.6
0.7912,63.6
0.7914,63.6
0.7916000000000001,63.4
0.7918000000000001,63.4
0.792,63.6
0.7922,63.6
0.7924,63.6
0.7926000000000001,63.6
0.7928000000000001,63.6
0.793,63.6
0.7932,63.4
0.7934,63.4
0.7936000000000001,63.6
0.7938000000000001,63.4
0.794,63.6
0.7942,63.2
0.7944,63.4
0.7946000000000001,63.4
0.7948000000000001,63.6
0.795,63.4
0.7952,63.6
0.7954,63.8
0.7956000000000001,63.2
0.7958000000000001,63.6
0.796,63.4
0.7962,63.6
0.7964,63.4
0.7966000000000001,63.4
0.7968000000000001,63.2
0.797,63.6
0.7972,63.4
0.7974,63.6
0.7976000000000001,63.4
0.7978000000000001,63.4
0.798,63.6
0.7982,63.8
0.7984,63.8
0.7986000000000001,63.6
0.7988000000000001,63.4
0.799,63.4
0.7992,63.4
0.7994,63.6
0.7996000000000001,63.6
0.7998000000000001,63.4
0.8,63.4
0.8002,63.4
0.8004,63.4
0.8006000000000001,63.4
0.8008000000000001,63.6
0.801,63.6
0.8012,63.6
0.8014,63.4
0.8016000000000001,63.6
0.8018000000000001,63.6
0.802,63.4
0.8022,63.4
0.8024,63.4
0.8026000000000001,63.6
0.8028000000000001,63.4
0.803,63.6
0.8032,63.4
0.8034,63.2
0.8036000000000001,63.6
0.8038000000000001,63.6
0.804,63.6
0.8042,63.8
0.8044,63.4
0.8046000000000001,63.4
0.8048000000000001,63.2
0.805,63.6
0.8052,63.6
0.8054,63.4
0.8056000000000001,63.4
0.8058000000000001,63.4
0.806,63.6
0.8062,63.4
0.8064,63.4
0.8066,63.6
0.8068000000000001,63.2
0.807,63.4
0.8072,63.2
0.8074,63.6
0.8076,63.4
0.8078000000000001,63.4
0.808,63.6
0.8082,63.4
0.8084,63.4
0.8086,63.4
0.8088000000000001,63.6
0.809,63.2
0.8092,63.4
0.8094,63.4
0.8096,63.8
0.8098000000000001,63.6
0.81,63.6
0.8102,63.4
0.8104,63.4
0.8106,63.6
0.8108000000000001,63.6
0.811,63.4
0.8112,63.6
0.8114,63.4
0.8116,63.6
0.8118000000000001,63.4
0.812,63.6
0.8122,63.6
0.8124,63.6
0.8126,63.4
0.8128000000000001,63.6
0.8130000000000001,63.2
0.8132,63.4
0.8134,63.6
0.8136,63.6
0.8138000000000001,63.4
0.8140000000000001,63.4
0.8142,63.4
0.8144,63.4
0.8146,63.4
0.8148000000000001,63.4
0.8150000000000001,63.6
0.8152,63.4
0.8154,63.4
0.8156,63.4
0.8158000000000001,63.4
0.8160000000000001,63.4
0.8162,63.4
0.8164,63.2
0.8166,63.4
0.8168000000000001,63.6
0.8170000000000001,63.2
0.8172,63.4
0.8174,63.6
0.8176,63.4
0.8178000000000001,63.6
0.8180000000000001,63.6
0.8182,63.6
0.8184,63.6
0.8186,63.4
0.8188000000000001,63.4
0.8190000000000001,63.4
0.8192,63.4
0.8194,63.4
0.8196,63.4
0.8198000000000001,63.4
0.8200000000000001,63.4
0.8202,63.6
0.8204,63.6
0.8206,63.6
0.8208000000000001,63.4
0.8210000000000001,63.6
0.8212,63.4
0.8214,63.6
0.8216,63.6
0.8218000000000001,63.4
0.8220000000000001,63.8
0.8222,63.4
0.8224,63.6
0.8226,63.6
0.8228000000000001,63.6
0.8230000000000001,63.4
0.8232,63.4
0.8234,63.6
0.8236,63.6
0.8238000000000001,63.6
0.8240000000000001,63.4
0.8242,63.6
0.8244,63.4
0.8246,63.4
0.8248000000000001,63.6
0.8250000000000001,63.6
0.8252,63.6
0.8254,63.4
0.8256,63.4
0.8258000000000001,63.6
0.8260000000000001,63.4
0.8262,63.6
0.8264,63.4
0.8266,63.4
0.8268000000000001,63.4
0.8270000000000001,63.4
0.8272,63.6
0.8274,63.4
0.8276,63.6
0.8278000000000001,63.6
0.8280000000000001,63.6
0.8282,63.6
0.8284,63.6
0.8286,63.6
0.8288000000000001,63.4
0.8290000000000001,63.4
0.8292,63.4
0.8294,63.4
0.8296,63.6
0.8298000000000001,63.6
0.8300000000000001,63.4
0.8302,63.6
0.8304,63.6
0.8306,63.4
0.8308000000000001,63.4
0.8310000000000001,63.4
0.8312,63.4
0.8314,63.4
0.8316,63.4
0.8318000000000001,63.6
0.8320000000000001,63.6
0.8322,63.4
0.8324,63.4
0.8326,63.2
0.8328,63.4
0.8330000000000001,63.4
0.8332,63.6
0.8334,63.4
0.8336,63.4
0.8338,63.2
0.8340000000000001,63.4
0.8342,63.4
0.8344,63.4
0.8346,63.4
0.8348,63.4
0.8350000000000001,63.6
0.8352,63.4
0.8354,63.4
0.8356,63.4
0.8358,63.4
0.8360000000000001,63.6
0.8362,63.2
0.8364,63.4
0.8366,63.4
0.8368,63.4
0.8370000000000001,63.6
0.8372,63.4
0.8374,63.4
0.8376,63.4
0.8378,63.4
0.8380000000000001,63.6
0.8382000000000001,63.6
0.8384,63.4
0.8386,63.4
0.8388,63.6
0.8390000000000001,63.4
0.8392000000000001,63.4
0.8394,63.6
0.8396,63.4
0.8398,63.4
0.8400000000000001,63.6
0.8402000000000001,63.4
0.8404,63.4
0.8406,63.6
0.8408,63.6
0.8410000000000001,63.4
0.8412000000000001,63.6
0.8414,63.6
0.8416,63.6
0.8418,63.4
0.8420000000000001,63.6
0.8422000000000001,63.6
0.8424,63.6
0.8426,63.4
0.8428,63.4
0.8430000000000001,63.6
0.8432000000000001,63.6
0.8434,63.6
0.8436,63.6
0.8438,63.6
0.8440000000000001,63.6
0.8442000000000001,63.4
0.8444,63.4
0.8446,63.6
0.8448,63.6
0.8450000000000001,63.2
0.8452000000000001,63.2
0.8454,63.6
0.8456,63.6
0.8458,63.4
0.8460000000000001,63.6
0.8462000000000001,63.4
0.8464,63.4
0.8466,63.4
0.8468,63.4
0.8470000000000001,63.6
0.8472000000000001,63.4
0.8474,63.6
0.8476,63.4
0.8478,63.4
0.8480000000000001,63.6
0.8482000000000001,63.4
0.8484,63.6
0.8486,63.4
0.8488,63.4
0.8490000000000001,63.4
0.8492000000000001,63.6
0.8494,63.6
0.8496,63.6
0.8498,63.4
0.8500000000000001,63.6
0.8502000000000001,63.4
0.8504,63.4
0.8506,63.4
0.8508,63.6
0.8510000000000001,63.8
0.8512000000000001,63.4
0.8514,63.4
0.8516,63.6
0.8518,63.6
0.8520000000000001,63.4
0.8522000000000001,63.6
0.8524,63.4
0.8526,63.4
0.8528,63.4
0.8530000000000001,63.6
0.8532000000000001,63.6
0.8534,63.6
0.8536,63.6
0.8538,63.6
0.8540000000000001,63.4
0.8542000000000001,63.6
0.8544,63.2
0.8546,63.6
0.8548,63.6
0.8550000000000001,63.4
0.8552000000000001,63.6
0.8554,63.4
0.8556,63.4
0.8558,63.4
0.8560000000000001,63.4
0.8562000000000001,63.4
0.8564,63.6
0.8566,63.4
0.8568,63.6
0.8570000000000001,63.6
0.8572000000000001,63.6
0.8574,63.4
0.8576,63.4
0.8578,63.4
0.8580000000000001,63.6
0.8582000000000001,63.4
0.8584,63.4
0.8586,63.2
0.8588,63.6
0.859,63.4
0.8592000000000001,63.4
0.8594,63.4
0.8596,63.0
0.8598,63.6
0.86,63.4
0.8602000000000001,63.6
0.8604,63.6
0.8606,63.6
0.8608,63.2
0.861,63.6
0.8612000000000001,63.4
0.8614,63.6
0.8616,63.4
0.8618,63.4
0.862,63.4
0.8622000000000001,63.6
0.8624,63.4
0.8626,63.4
0.8628,63.4
0.863,63.4
0.8632000000000001,63.4
0.8634000000000001,63.6
0.8636,63.6
0.8638,63.6
0.864,63.4
0.8642000000000001,63.2
0.8644000000000001,63.6
0.8646,63.6
0.8648,63.4
0.865,63.4
0.8652000000000001,63.4
0.8654000000000001,63.4
0.8656,63.4
0.8658,63.4
0.866,63.4
0.8662000000000001,63.6
0.8664000000000001,63.6
0.8666,63.4
0.8668,63.6
0.867,63.4
0.8672000000000001,63.8
0.8674000000000001,63.4
0.8676,63.6
0.8678,63.6
0.868,63.6
0.8682000000000001,63.4
0.8684000000000001,63.4
0.8686,63.6
0.8688,63.4
0.869,63.6
0.8692000000000001,63.6
0.8694000000000001,63.6
0.8696,63.4
0.8698,63.6
0.87,63.6
0.8702000000000001,63.4
0.8704000000000001,63.6
0.8706,63.4
0.8708,63.4
0.871,63.4
0.8712000000000001,63.6
0.8714000000000001,63.4
0.8716,63.6
0.8718,63.8
0.872,63.4
0.8722000000000001,63.4
0.8724000000000001,63.2
0.8726,63.6
0.8728,63.6
0.873,63.4
0.8732000000000001,63.6
0.8734000000000001,63.4
0.8736,63.6
0.8738,63.2
0.874,63.6
0.8742000000000001,63.4
0.8744000000000001,63.4
0.8746,63.6
0.8748,63.4
0.875,63.4
0.8752000000000001,63.4
0.8754000000000001,63.4
0.8756,63.4
0.8758,63.4
0.876,63.4
0.8762000000000001,63.6
0.8764000000000001,63.4
0.8766,63.6
0.8768,63.6
0.877,63.4
0.8772000000000001,63.4
0.8774000000000001,63.4
0.8776,63.4
0.8778,63.4
0.878,63.4
0.8782000000000001,63.6
0.8784000000000001,63.4
0.8786,63.6
0.8788,63.4
0.879,63.6
0.8792000000000001,63.6
0.8794000000000001,63.6
0.8796,63.4
0.8798,63.4
0.88,63.4
0.8802000000000001,63.4
0.8804000000000001,63.4
0.8806,63.2
0.8808,63.4
0.881,63.6
0.8812000000000001,63.4
0.8814000000000001,63.4
0.8816,63.4
0.8818,63.6
0.882,63.6
0.8822000000000001,63.4
0.8824000000000001,63.6
0.8826,63.6
0.8828,63.6
0.883,63.4
0.8832000000000001,63.6
0.8834000000000001,63.4
0.8836,63.6
0.8838,63.4
0.884,63.4
0.8842000000000001,63.6
0.8844000000000001,63.4
0.8846,63.6
0.8848,63.4
0.885,63.2
0.8852000000000001,63.6
0.8854000000000001,63.4
0.8856,63.6
0.8858,63.4
0.886,63.4
0.8862,63.4
0.8864000000000001,63.6
0.8866,63.4
0.8868,63.4
0.887,63.6
0.8872,63.6
0.8874000000000001,63.4
0.8876000000000001,63.6
0.8878,63.4
0.888,63.6
0.8882,63.4
0.8884000000000001,63.6
0.8886000000000001,63.4
0.8888,63.4
0.889,63.8
0.8892,63.4
0.8894000000000001,63.4
0.8896000000000001,63.6
0.8898,63.4
0.89,63.4
0.8902,63.6
0.8904000000000001,63.4
0.8906000000000001,63.4
0.8908,63.2
0.891,63.4
0.8912,63.6
0.8914000000000001,63.6
0.8916000000000001,63.4
0.8918,63.6
0.892,63.6
0.8922,63.6
0.8924000000000001,63.4
0.8926000000000001,63.6
0.8928,63.4
0.893,63.6
0.8932,63.4
0.8934000000000001,63.4
0.8936000000000001,63.4
0.8938,63.6
0.894,63.4
0.8942,63.6
0.8944000000000001,63.6
0.8946000000000001,63.2
0.8948,63.4
0.895,63.4
0.8952,63.4
0.8954000000000001,63.6
0.8956000000000001,63.4
0.8958,63.4
0.896,63.4
0.8962,63.4
0.8964000000000001,63.6
0.8966000000000001,63.4
0.8968,63.4
0.897,63.4
0.8972,63.6
0.8974000000000001,63.6
0.8976000000000001,63.4
0.8978,63.6
0.898,63.6
0.8982,63.4
0.8984000000000001,63.8
0.8986000000000001,63.4
0.8988,63.4
0.899,63.4
0.8992,63.4
0.8994000000000001,63.6
0.8996000000000001,63.4
0.8998,63.4
0.9,63.6
0.9002,63.6
0.9004000000000001,63.4
0.9006000000000001,63.6
0.9008,63.6
0.901,63.4
0.9012,63.4
0.9014000000000001,63.4
0.9016000000000001,63.4
0.9018,63.6
0.902,63.4
0.9022,63.4
0.9024000000000001,63.4
0.9026000000000001,63.6
0.9028,63.6
0.903,63.4
0.9032,63.6
0.9034000000000001,63.6
0.9036000000000001,63.2
0.9038,63.6
0.904,63.4
0.9042,63.6
0.9044000000000001,63.4
0.9046000000000001,63.4
0.9048,63.6
0.905,63.4
0.9052,63.2
0.9054000000000001,63.4
0.9056000000000001,63.4
0.9058,63.4
0.906,63.4
0.9062,63.4
0.9064000000000001,63.6
0.9066000000000001,63.4
0.9068,63.6
0.907,63.6
0.9072,63.4
0.9074000000000001,63.6
0.9076000000000001,63.6
0.9078,63.6
0.908,63.6
0.9082,63.4
0.9084000000000001,63.6
0.9086000000000001,63.4
0.9088,63.6
0.909,63.6
0.9092,63.4
0.9094000000000001,63.8
0.9096000000000001,63.6
0.9098,63.6
0.91,63.6
0.9102,63.4
0.9104000000000001,63.6
0.9106000000000001,63.4
0.9108,63.4
0.911,63.4
0.9112,63.6
0.9114000000000001,63.6
0.9116000000000001,63.6
0.9118,63.6
0.912,63.6
0.9122,63.4
0.9124,63.6
0.9126000000000001,63.6
0.9128000000000001,63.4
0.913,63.4
0.9132,63.6
0.9134,63.4
0.9136000000000001,63.6
0.9138000000000001,63.4
0.914,63.6
0.9142,63.6
0.9144,63.4
0.9146000000000001,63.4
0.9148000000000001,63.4
0.915,63.4
0.9152,63.4
0.9154,63.4
0.9156000000000001,63.4
0.9158000000000001,63.6
0.916,63.4
0.9162,63.6
0.9164,63.6
0.9166000000000001,63.4
0.9168000000000001,63.4
0.917,63.6
0.9172,63.4
0.9174,63.4
0.9176000000000001,63.4
0.9178000000000001,63.4
0.918,63.4
0.9182,63.6
0.9184,63.4
0.9186000000000001,63.4
0.9188000000000001,63.4
0.919,63.4
0.9192,63.4
0.9194,63.4
0.9196000000000001,63.6
0.9198000000000001,63.4
0.92,63.6
0.9202,63.4
0.9204,63.6
0.9206000000000001,63.4
0.9208000000000001,63.6
0.921,63.6
0.9212,63.6
0.9214,63.6
0.9216000000000001,63.4
0.9218000000000001,63.6
0.922,63.4
0.9222,63.4
0.9224,63.8
0.9226000000000001,63.4
0.9228000000000001,63.6
0.923,63.6
0.9232,63.6
0.9234,63.4
0.9236000000000001,63.4
0.9238000000000001,63.6
0.924,63.6
0.9242,63.4
0.9244,63.4
0.9246000000000001,63.6
0.9248000000000001,63.4
0.925,63.4
0.9252,63.4
0.9254,63.4
0.9256000000000001,63.4
0.9258000000000001,63.2
0.926,63.4
0.9262,63.6
0.9264,63.6
0.9266000000000001,63.6
0.9268000000000001,63.6
0.927,63.4
0.9272,63.6
0.9274,63.6
0.9276000000000001,63.6
0.9278000000000001,63.6
0.928,63.4
0.9282,63.2
0.9284,63.4
0.9286000000000001,63.6
0.9288000000000001,63.4
0.929,63.4
0.9292,63.6
0.9294,63.8
0.9296000000000001,63.6
0.9298000000000001,63.6
0.93,63.6
0.9302,63.4
0.9304,63.4
0.9306000000000001,63.4
0.9308000000000001,63.4
0.931,63.6
0.9312,63.6
0.9314,63.6
0.9316000000000001,63.6
0.9318000000000001,63.4
0.932,63.4
0.9322,63.6
0.9324,63.6
0.9326000000000001,63.6
0.9328000000000001,63.4
0.933,63.6
0.9332,63.6
0.9334,63.4
0.9336000000000001,63.6
0.9338000000000001,63.6
0.934,63.4
0.9342,63.4
0.9344,63.6
0.9346000000000001,63.4
0.9348000000000001,63.4
0.935,63.4
0.9352,63.4
0.9354,63.4
0.9356000000000001,63.4
0.9358000000000001,63.4
0.936,63.4
0.9362,63.6
0.9364,63.4
0.9366000000000001,63.4
0.9368000000000001,63.8
0.937,63.6
0.9372,63.6
0.9374,63.4
0.9376000000000001,63.6
0.9378000000000001,63.4
0.9380000000000001,63.6
0.9382,63.2
0.9384,63.2
0.9386,63.2
0.9388000000000001,63.4
0.9390000000000001,63.6
0.9392,63.4
0.9394,63.4
0.9396,63.4
0.9398000000000001,63.6
0.9400000000000001,63.4
0.9402,63.4
0.9404,63.4
0.9406,63.4
0.9408000000000001,63.6
0.9410000000000001,63.6
0.9412,63.4
0.9414,63.8
0.9416,63.6
0.9418000000000001,63.4
0.9420000000000001,63.4
0.9422,63.8
0.9424,63.4
0.9426,63.6
0.9428000000000001,63.6
0.9430000000000001,63.4
0.9432,63.4
0.9434,63.2
0.9436,63.6
0.9438000000000001,63.6
0.9440000000000001,63.4
0.9442,63.6
0.9444,63.4
0.9446,63.4
0.9448000000000001,63.4
0.9450000000000001,63.4
0.9452,63.2
0.9454,63.4
0.9456,63.4
0.9458000000000001,63.4
0.9460000000000001,63.6
0.9462,63.6
0.9464,63.4
0.9466,63.6
0.9468000000000001,63.4
0.9470000000000001,63.4
0.9472,63.6
0.9474,63.6
0.9476,63.4
0.9478000000000001,63.4
0.9480000000000001,63.4
0.9482,63.4
0.9484,63.6
0.9486,63.6
0.9488000000000001,63.4
0.9490000000000001,63.6
0.9492,63.6
0.9494,63.4
0.9496,63.4
0.9498000000000001,63.6
0.9500000000000001,63.6
0.9502,63.6
0.9504,63.2
0.9506,63.4
0.9508000000000001,63.6
0.9510000000000001,63.6
0.9512,63.6
0.9514,63.4
0.9516,63.2
0.9518000000000001,63.4
0.9520000000000001,63.6
0.9522,63.4
0.9524,63.6
0.9526,63.4
0.9528000000000001,63.4
0.9530000000000001,63.4
0.9532,63.6
0.9534,63.6
0.9536,63.6
0.9538000000000001,63.6
0.9540000000000001,63.4
0.9542,63.4
0.9544,63.6
0.9546,63.4
0.9548000000000001,63.4
0.9550000000000001,63.4
0.9552,63.4
0.9554,63.6
0.9556,63.4
0.9558000000000001,63.6
0.9560000000000001,63.6
0.9562,63.4
0.9564,63.4
0.9566,63.4
0.9568000000000001,63.6
0.9570000000000001,63.6
0.9572,63.6
0.9574,63.4
0.9576,63.4
0.9578000000000001,63.6
0.9580000000000001,63.4
0.9582,63.4
0.9584,63.4
0.9586,63.4
0.9588000000000001,63.8
0.9590000000000001,63.4
0.9592,63.6
0.9594,63.4
0.9596,63.6
0.9598000000000001,63.2
0.9600000000000001,63.6
0.9602,63.6
0.9604,63.4
0.9606,63.6
0.9608000000000001,63.4
0.9610000000000001,63.4
0.9612,63.6
0.9614,63.4
0.9616,63.4
0.9618000000000001,63.4
0.9620000000000001,63.6
0.9622,63.6
0.9624,63.6
0.9626,63.4
0.9628000000000001,63.6
0.9630000000000001,63.6
0.9632000000000001,63.4
0.9634,63.6
0.9636,63.6
0.9638000000000001,63.4
0.9640000000000001,63.4
0.9642000000000001,63.4
0.9644,63.4
0.9646,63.4
0.9648,63.6
0.9650000000000001,63.4
0.9652000000000001,63.4
0.9654,63.4
0.9656,63.4
0.9658,63.4
0.9660000000000001,63.4
0.9662000000000001,63.6
0.9664,63.4
0.9666,63.6
0.9668,63.8
0.9670000000000001,63.6
0.9672000000000001,63.8
0.9674,63.4
0.9676,63.6
0.9678,63.6
0.9680000000000001,63.6
0.9682000000000001,63.4
0.9684,63.4
0.9686,63.4
0.9688,63.6
0.9690000000000001,63.4
0.9692000000000001,63.4
0.9694,63.4
0.9696,63.6
0.9698,63.4
0.9700000000000001,63.4
0.9702000000000001,63.4
0.9704,63.6
0.9706,63.6
0.9708,63.6
0.9710000000000001,63.4
0.9712000000000001,63.4
0.9714,63.4
0.9716,63.4
0.9718,63.4
0.9720000000000001,63.6
0.9722000000000001,63.6
0.9724,63.4
0.9726,63.4
0.9728,63.6
0.9730000000000001,63.6
0.9732000000000001,63.4
0.9734,63.6
0.9736,63.6
0.9738,63.2
0.9740000000000001,63.6
0.9742000000000001,63.2
0.9744,63.4
0.9746,63.6
0.9748,63.2
0.9750000000000001,63.2
0.9752000000000001,63.6
0.9754,63.4
0.9756,63.6
0.9758,63.4
0.9760000000000001,63.6
0.9762000000000001,63.4
0.9764,63.8
0.9766,63.6
0.9768,63.8
0.9770000000000001,63.4
0.9772000000000001,63.4
0.9774,63.4
0.9776,63.6
0.9778,63.2
0.9780000000000001,63.4
0.9782000000000001,63.4
0.9784,63.6
0.9786,63.6
0.9788,63.4
0.9790000000000001,63.4
0.9792000000000001,63.6
0.9794,63.6
0.9796,63.2
0.9798,63.6
0.9800000000000001,63.4
0.9802000000000001,63.8
0.9804,63.6
0.9806,63.4
0.9808,63.4
0.9810000000000001,63.4
0.9812000000000001,63.6
0.9814,63.4
0.9816,63.2
0.9818,63.6
0.9820000000000001,63.6
0.9822000000000001,63.6
0.9824,63.6
0.9826,63.4
0.9828,63.4
0.9830000000000001,63.6
0.9832000000000001,63.6
0.9834,63.4
0.9836,63.6
0.9838,63.4
0.9840000000000001,63.4
0.9842000000000001,63.4
0.9844,63.4
0.9846,63.6
0.9848,63.6
0.9850000000000001,63.4
0.9852000000000001,63.4
0.9854,63.4
0.9856,63.6
0.9858,63.4
0.9860000000000001,63.4
0.9862000000000001,63.6
0.9864,63.4
0.9866,63.6
0.9868,63.6
0.9870000000000001,63.6
0.9872000000000001,63.4
0.9874,63.6
0.9876,63.2
0.9878,63.6
0.9880000000000001,63.6
0.9882000000000001,63.6
0.9884000000000001,63.4
0.9886,63.6
0.9888,63.4
0.9890000000000001,63.6
0.9892000000000001,63.6
0.9894000000000001,63.4
0.9896,63.4
0.9898,63.4
0.9900000000000001,63.4
0.9902000000000001,63.4
0.9904000000000001,63.6
0.9906,63.4
0.9908,63.4
0.991,63.2
0.9912000000000001,63.4
0.9914000000000001,63.4
0.9916,63.6
0.9918,63.4
0.992,63.6
0.9922000000000001,63.2
0.9924000000000001,63.6
0.9926,63.6
0.9928,63.4
0.993,63.4
0.9932000000000001,63.6
0.9934000000000001,63.6
0.9936,63.4
0.9938,63.6
0.994,63.6
0.9942000000000001,63.4
0.9944000000000001,63.6
0.9946,63.4
0.9948,63.6
0.995,63.4
0.9952000000000001,63.4
0.9954000000000001,63.4
0.9956,63.6
0.9958,63.6
0.996,63.4
0.9962000000000001,63.6
0.9964000000000001,63.6
0.9966,63.6
0.9968,63.2
0.997,63.4
0.9972000000000001,63.2
0.9974000000000001,63.6
0.9976,63.4
0.9978,63.4
0.998,63.4
0.9982000000000001,63.4
0.9984000000000001,63.6
0.9986,63.4
0.9988,63.4
0.999,63.4
0.9992000000000001,63.6
0.9994000000000001,63.4
0.9996,63.6
0.9998,63.4
1.0,63.4
1.0002,63.6
1.0004,63.6
1.0006000000000002,63.6
1.0008000000000001,63.6
1.0010000000000001,63.4
1.0012,63.6
1.0014,63.6
1.0016,63.6
1.0018,63.6
1.002,63.6
1.0022,63.6
1.0024,63.4
1.0026000000000002,63.4
1.0028000000000001,63.4
1.0030000000000001,63.6
1.0032,63.6
1.0034,63.4
1.0036,63.4
1.0038,63.4
1.004,63.4
1.0042,63.2
1.0044,63.4
1.0046,63.6
1.0048000000000001,63.4
1.0050000000000001,63.4
1.0052,63.4
1.0054,63.6
1.0056,63.6
1.0058,63.4
1.006,63.6
1.0062,63.4
1.0064,63.6
1.0066,63.4
1.0068000000000001,63.6
1.0070000000000001,63.6
1.0072,63.6
1.0074,63.4
1.0076,63.4
1.0078,63.4
1.008,63.6
1.0082,63.4
1.0084,63.4
1.0086,63.4
1.0088000000000001,63.4
1.0090000000000001,63.4
1.0092,63.6
1.0094,63.4
1.0096,63.6
1.0098,63.4
1.01,63.6
1.0102,63.6
1.0104,63.6
1.0106,63.6
1.0108000000000001,63.4
1.0110000000000001,63.2
1.0112,63.4
1.0114,63.6
1.0116,63.4
1.0118,63.4
1.012,63.6
1.0122,63.6
1.0124,63.4
1.0126,63.8
1.0128000000000001,63.4
1.0130000000000001,63.6
1.0132,63.6
1.0134,63.4
1.0136,63.4
1.0138,63.4
1.014,63.4
1.0142,63.4
1.0144,63.4
1.0146,63.6
1.0148000000000001,63.4
1.0150000000000001,63.4
1.0152,63.4
1.0154,63.6
1.0156,63.8
1.0158,63.4
1.016,63.4
1.0162,63.6
1.0164,63.6
1.0166,63.4
1.0168000000000001,63.4
1.0170000000000001,63.4
1.0172,63.6
1.0174,63.4
1.0176,63.4
1.0178,63.4
1.018,63.4
1.0182,63.4
1.0184,63.4
1.0186,63.4
1.0188000000000001,63.6
1.0190000000000001,63.4
1.0192,63.4
1.0194,63.4
1.0196,63.6
1.0198,63.6
1.02,63.4
1.0202,63.6
1.0204,70.4
1.0206,70.2
1.0208000000000002,70.4
1.0210000000000001,70.2
1.0212,70.2
1.0214,70.4
1.0216,70.4
1.0218,70.4
1.022,70.4
1.0222,70.6
1.0224,70.4
1.0226,70.2
1.0228000000000002,70.6
1.0230000000000001,70.6
1.0232,70.4
1.0234,70.4
1.0236,70.6
1.0238,70.8
1.024,70.4
1.0242,70.6
1.0244,70.4
1.0246,70.6
1.0248000000000002,70.4
1.0250000000000001,70.4
1.0252000000000001,70.6
1.0254,70.6
1.0256,70.6
1.0258,70.8
1.026,70.6
1.0262,70.8
1.0264,70.8
1.0266,71.0
1.0268000000000002,70.8
1.0270000000000001,70.8
1.0272000000000001,70.6
1.0274,71.0
1.0276,70.8
1.0278,70.8
1.028,70.8
1.0282,70.8
1.0284,71.0
1.0286,70.8
1.0288000000000002,71.0
1.0290000000000001,70.8
1.0292000000000001,71.0
1.0294,70.8
1.0296,71.0
1.0298,70.8
1.03,71.0
1.0302,71.0
1.0304,71.0
1.0306,70.8
1.0308,70.8
1.0310000000000001,71.0
1.0312000000000001,71.0
1.0314,71.2
1.0316,71.2
1.0318,70.8
1.032,71.0
1.0322,71.0
1.0324,71.2
1.0326,71.0
1.0328,71.0
1.0330000000000001,71.2
1.0332000000000001,70.8
1.0334,71.2
1.0336,71.0
1.0338,71.0
1.034,71.2
1.0342,71.0
1.0344,71.0
1.0346,71.2
1.0348,71.0
1.0350000000000001,71.2
1.0352000000000001,71.4
1.0354,71.2
1.0356,71.2
1.0358,71.2
1.036,71.0
1.0362,71.4
1.0364,71.4
1.0366,71.2
1.0368,71.4
1.0370000000000001,71.2
1.0372000000000001,71.0
1.0374,71.2
1.0376,71.2
1.0378,71.4
1.038,71.4
1.0382,71.2
1.0384,71.4
1.0386,71.6
1.0388,71.4
1.0390000000000001,71.2
1.0392000000000001,71.4
1.0394,71.6
1.0396,71.6
1.0398,71.4
1.04,71.4
1.0402,71.4
1.0404,71.4
1.0406,71.4
1.0408,71.4
1.0410000000000001,71.4
1.0412000000000001,71.6
1.0414,71.6
1.0416,71.4
1.0418,71.6
1.042,71.6
1.0422,71.4
1.0424,71.2
1.0426,71.6
1.0428,71.6
1.0430000000000001,71.6
1.0432000000000001,71.4
1.0434,71.4
1.0436,71.6
1.0438,71.4
1.044,71.6
1.0442,71.4
1.0444,71.6
1.0446,71.4
1.0448,71.4
1.0450000000000002,71.6
1.0452000000000001,71.6
1.0454,71.6
1.0456,71.8
1.0458,71.6
1.046,71.8
1.0462,71.6
1.0464,71.6
1.0466,71.8
1.0468,71.6
1.0470000000000002,71.8
1.0472000000000001,72.0
1.0474,71.6
1.0476,72.0
1.0478,71.6
1.048,71.8
1.0482,71.6
1.0484,71.6
1.0486,71.8
1.0488,71.6
1.0490000000000002,72.0
1.0492000000000001,71.6
1.0494,71.6
1.0496,72.0
1.0498,72.0
1.05,72.0
1.0502,72.0
1.0504,71.8
1.0506,71.8
1.0508,71.8
1.0510000000000002,72.0
1.0512000000000001,72.0
1.0514000000000001,72.0
1.0516,71.8
1.0518,72.0
1.052,72.0
1.0522,72.0
1.0524,71.8
1.0526,72.0
1.0528,72.0
1.0530000000000002,72.0
1.0532000000000001,72.0
1.0534000000000001,71.8
1.0536,71.8
1.0538,71.8
1.054,71.8
1.0542,71.8
1.0544,72.0
1.0546,71.8
1.0548,72.0
1.0550000000000002,72.2
1.0552000000000001,72.0
1.0554000000000001,71.8
1.0556,72.0
1.0558,72.0
1.056,72.0
1.0562,71.8
1.0564,71.8
1.0566,72.0
1.0568,72.0
1.0570000000000002,71.8
1.0572000000000001,72.0
1.0574000000000001,71.8
1.0576,72.2
1.0578,72.2
1.058,72.0
1.0582,72.0
1.0584,72.0
1.0586,72.0
1.0588,71.8
1.059,72.0
1.0592000000000001,72.0
1.0594000000000001,72.0
1.0596,72.2
1.0598,72.0
1.06,72.0
1.0602,72.0
1.0604,72.0
1.0606,71.8
1.0608,72.0
1.061,72.2
1.0612000000000001,72.0
1.0614000000000001,72.0
1.0616,72.2
1.0618,72.2
1.062,72.0
1.0622,72.0
1.0624,72.2
1.0626,72.2
1.0628,72.0
1.063,72.2
1.0632000000000001,72.0
1.0634000000000001,72.0
1.0636,72.0
1.0638,72.2
1.064,72.0
1.0642,72.0
1.0644,72.0
1.0646,72.0
1.0648,72.2
1.065,72.0
1.0652000000000001,72.4
1.0654000000000001,72.2
1.0656,72.2
1.0658,72.4
1.066,72.2
1.0662,72.2
1.0664,72.0
1.0666,72.2
1.0668,72.0
1.067,72.2
1.0672000000000001,72.2
1.0674000000000001,72.2
1.0676,72.0
1.0678,72.4
1.068,72.2
1.0682,72.2
1.0684,72.4
1.0686,72.2
1.0688,72.0
1.069,72.2
1.0692000000000002,72.0
1.0694000000000001,72.2
1.0696,72.4
1.0698,72.4
1.07,72.2
1.0702,72.4
1.0704,72.2
1.0706,72.2
1.0708,72.2
1.071,72.4
1.0712000000000002,72.2
1.0714000000000001,72.0
1.0716,72.2
1.0718,72.2
1.072,72.2
1.0722,72.2
1.0724,72.2
1.0726,72.4
1.0728,72.4
1.073,72.4
1.0732000000000002,72.2
1.0734000000000001,72.2
1.0736,72.2
1.0738,72.2
1.074,72.2
1.0742,72.4
1.0744,72.2
1.0746,72.4
1.0748,72.6
1.075,72.4
1.0752000000000002,72.4
1.0754000000000001,72.4
1.0756000000000001,72.4
1.0758,72.4
1.076,72.2
1.0762,72.2
1.0764,72.2
1.0766,72.4
1.0768,72.2
1.077,72.0
1.0772000000000002,72.4
1.0774000000000001,72.4
1.0776000000000001,72.4
1.0778,72.0
1.078,72.2
1.0782,72.4
1.0784,72.4
1.0786,72.2
1.0788,72.6
1.079,72.4
1.0792000000000002,72.6
1.0794000000000001,72.4
1.0796000000000001,72.4
1.0798,72.4
1.08,72.4
1.0802,72.4
1.0804,72.4
1.0806,72.4
1.0808,72.4
1.081,72.4
1.0812000000000002,72.4
1.0814000000000001,72.6
1.0816000000000001,72.4
1.0818,72.4
1.082,72.4
1.0822,72.4
1.0824,72.4
1.0826,72.4
1.0828,72.2
1.083,72.4
1.0832000000000002,72.6
1.0834000000000001,72.2
1.0836000000000001,72.6
1.0838,72.2
1.084,72.4
1.0842,72.2
1.0844,72.4
1.0846,72.6
1.0848,72.4
1.085,72.4
1.0852,72.4
1.0854000000000001,72.4
1.0856000000000001,72.6
1.0858,72.4
1.086,72.6
1.0862,72.4
1.0864,72.4
1.0866,72.2
1.0868,72.6
1.087,72.4
1.0872,72.6
1.0874000000000001,72.4
1.0876000000000001,72.6
1.0878,72.4
1.088,72.4
1.0882,72.6
1.0884,72.6
1.0886,72.6
1.0888,72.4
1.089,72.4
1.0892,72.6
1.0894000000000001,72.6
1.0896000000000001,72.6
1.0898,72.6
1.09,72.4
1.0902,72.4
1.0904,72.2
1.0906,72.6
1.0908,72.6
1.091,72.6
1.0912,72.4
1.0914000000000001,72.8
1.0916000000000001,72.6
1.0918,72.6
1.092,72.4
1.0922,72.6
1.0924,72.6
1.0926,72.4
1.0928,72.8
1.093,72.4
1.0932,72.6
1.0934000000000001,72.6
1.0936000000000001,72.4
1.0938,72.6
1.094,72.6
1.0942,72.6
1.0944,72.4
1.0946,72.6
1.0948,72.6
1.095,72.4
1.0952,72.6
1.0954000000000002,72.4
1.0956000000000001,72.6
1.0958,72.4
1.096,72.4
1.0962,72.4
1.0964,72.6
1.0966,72.4
1.0968,72.6
1.097,72.4
1.0972,72.4
1.0974000000000002,72.6
1.0976000000000001,72.4
1.0978,72.6
1.098,72.6
1.0982,72.6
1.0984,72.6
1.0986,72.6
1.0988,72.4
1.099,72.6
1.0992,72.6
1.0994000000000002,72.6
1.0996000000000001,72.6
1.0998,72.6
1.1,72.6
1.1002,72.6
1.1004,72.6
1.1006,72.6
1.1008,72.8
1.101,72.8
1.1012,72.6
1.1014000000000002,72.6
1.1016000000000001,72.4
1.1018000000000001,72.6
1.102,72.6
1.1022,72.6
1.1024,72.6
1.1026,72.6
1.1028,72.6
1.103,72.6
1.1032,72.4
1.1034000000000002,72.6
1.1036000000000001,72.6
1.1038000000000001,72.6
1.104,72.2
1.1042,72.6
1.1044,72.8
1.1046,72.4
1.1048,72.6
1.105,72.8
1.1052,72.6
1.1054000000000002,72.6
1.1056000000000001,72.8
1.1058000000000001,72.8
1.106,72.6
1.1062,72.6
1.1064,72.8
1.1066,72.6
1.1068,72.8
1.107,72.8
1.1072,72.4
1.1074000000000002,72.8
1.1076000000000001,72.8
1.1078000000000001,72.4
1.108,72.6
1.1082,72.8
1.1084,72.6
1.1086,72.6
1.1088,72.6
1.109,72.8
1.1092,72.6
1.1094000000000002,72.8
1.1096000000000001,72.6
1.1098000000000001,72.6
1.11,72.4
1.1102,72.6
1.1104,72.8
1.1106,72.6
1.1108,72.6
1.111,72.6
1.1112,72.6
1.1114,72.8
1.1116000000000001,72.6
1.1118000000000001,72.6
1.112,72.8
1.1122,72.8
1.1124,72.6
1.1126,72.8
1.1128,72.6
1.113,72.6
1.1132,72.6
1.1134,72.6
1.1136000000000001,72.4
1.1138000000000001,72.8
1.114,72.6
1.1142,72.8
1.1144,72.8
1.1146,72.4
1.1148,72.4
1.115,72.8
1.1152,72.6
1.1154,72.6
1.1156000000000001,72.6
1.1158000000000001,72.8
1.116,72.8
1.1162,72.6
1.1164,72.6
1.1166,72.6
1.1168,72.6
1.117,72.6
1.1172,72.6
1.1174,72.6
1.1176000000000001,72.6
1.1178000000000001,72.6
1.118,72.8
1.1182,72.6
1.1184,72.8
1.1186,72.8
1.1188,72.8
1.119,72.6
1.1192,72.6
1.1194,72.6
1.1196000000000002,72.6
1.1198000000000001,72.8
1.12,72.6
1.1202,72.6
1.1204,72.6
1.1206,72.6
1.1208,72.6
1.121,72.8
1.1212,72.8
1.1214,72.4
1.1216000000000002,72.6
1.1218000000000001,72.8
1.122,72.8
1.1222,72.8
1.1224,72.6
1.1226,72.8
1.1228,72.6
1.123,72.6
1.1232,72.8
1.1234,72.4
1.1236000000000002,72.8
1.1238000000000001,72.6
1.124,72.8
1.1242,72.8
1.1244,72.6
1.1246,72.8
1.1248,72.6
1.125,72.8
1.1252,72.8
1.1254,72.8
1.1256000000000002,72.8
1.1258000000000001,72.6
1.1260000000000001,72.8
1.1262,72.6
1.1264,72.8
1.1266,72.6
1.1268,72.8
1.127,72.8
1.1272,72.8
1.1274,72.8
1.1276000000000002,72.8
1.1278000000000001,72.8
1.1280000000000001,72.8
1.1282,73.0
1.1284,72.8
1.1286,72.8
1.1288,72.8
1.129,72.8
1.1292,72.8
1.1294,73.0
1.1296000000000002,72.4
1.1298000000000001,72.4
1.1300000000000001,72.6
1.1302,72.8
1.1304,73.0
1.1306,72.6
1.1308,72.6
1.131,72.8
1.1312,72.6
1.1314,73.0
1.1316000000000002,72.8
1.1318000000000001,72.8
1.1320000000000001,72.8
1.1322,72.4
1.1324,72.8
1.1326,72.4
1.1328,72.6
1.133,72.6
1.1332,72.6
1.1334,72.6
1.1336000000000002,72.6
1.1338000000000001,72.6
1.1340000000000001,72.8
1.1342,73.0
1.1344,72.8
1.1346,72.6
1.1348,72.6
1.135,72.8
1.1352,72.8
1.1354,72.8
1.1356000000000002,72.6
1.1358000000000001,72.6
1.1360000000000001,72.8
1.1362,72.6
1.1364,72.8
1.1366,72.6
1.1368,72.6
1.137,72.8
1.1372,72.8
1.1374,72.6
1.1376,72.8
1.1378000000000001,72.8
1.1380000000000001,72.8
1.1382,73.0
1.1384,72.8
1.1386,73.0
1.1388,72.8
1.139,72.8
1.1392,72.8
1.1394,72.8
1.1396,72.8
1.1398000000000001,72.8
1.1400000000000001,72.8
1.1402,72.8
1.1404,72.8
1.1406,72.6
1.1408,73.0
1.141,73.0
1.1412,72.6
1.1414,72.6
1.1416,72.8
1.1418000000000001,72.8
1.1420000000000001,72.8
1.1422,72.8
1.1424,72.6
1.1426,72.8
1.1428,72.6
1.143,73.0
1.1432,72.8
1.1434,72.8
1.1436,72.6
1.1438000000000001,72.6
1.1440000000000001,72.8
1.1442,72.6
1.1444,72.8
1.1446,72.8
1.1448,72.8
1.145,72.8
1.1452,72.8
1.1454,73.0
1.1456,72.8
1.1458000000000002,72.8
1.1460000000000001,72.6
1.1462,72.8
1.1464,73.0
1.1466,72.8
1.1468,72.8
1.147,72.8
1.1472,72.8
1.1474,72.6
1.1476,72.6
1.1478000000000002,72.8
1.1480000000000001,72.8
1.1482,72.6
1.1484,72.8
1.1486,73.0
1.1488,72.8
1.149,72.8
1.1492,72.8
1.1494,72.8
1.1496,72.8
1.1498000000000002,72.8
1.1500000000000001,72.8
1.1502000000000001,73.0
1.1504,72.8
1.1506,72.6
1.1508,72.8
1.151,72.8
1.1512,72.6
1.1514,72.6
1.1516,73.0
1.1518000000000002,72.8
1.1520000000000001,72.4
1.1522000000000001,72.8
1.1524,72.8
1.1526,72.6
1.1528,72.8
1.153,72.8
1.1532,72.6
1.1534,72.6
1.1536,72.6
1.1538000000000002,72.8
1.1540000000000001,72.8
1.1542000000000001,72.8
1.1544,72.6
1.1546,72.6
1.1548,72.8
1.155,72.8
1.1552,72.8
1.1554,72.8
1.1556,72.6
1.1558000000000002,72.8
1.1560000000000001,72.6
1.1562000000000001,72.8
1.1564,72.8
1.1566,72.8
1.1568,72.8
1.157,72.8
1.1572,72.8
1.1574,73.0
1.1576,72.8
1.1578000000000002,72.8
1.1580000000000001,72.8
1.1582000000000001,72.6
1.1584,72.8
1.1586,73.0
1.1588,73.0
1.159,72.8
1.1592,73.0
1.1594,72.8
1.1596,72.6
1.1598000000000002,72.8
1.1600000000000001,72.6
1.1602000000000001,72.8
1.1604,73.0
1.1606,72.8
1.1608,73.0
1.161,72.8
1.1612,72.6
1.1614,73.0
1.1616,72.8
1.1618000000000002,72.6
1.1620000000000001,72.8
1.1622000000000001,72.6
1.1624,72.8
1.1626,72.6
1.1628,72.8
1.163,72.6
1.1632,72.8
1.1634,72.6
1.1636,72.8
1.1638,72.8
1.1640000000000001,72.6
1.1642000000000001,73.0
1.1644,72.8
1.1646,72.6
1.1648,72.8
1.165,73.0
1.1652,72.8
1.1654,72.8
1.1656,72.8
1.1658,72.6
1.1660000000000001,72.8
1.1662000000000001,72.8
1.1664,72.8
1.1666,72.8
1.1668,73.0
1.167,72.8
1.1672,72.6
1.1674,73.0
1.1676,72.8
1.1678,72.8
1.1680000000000001,72.8
1.1682000000000001,72.8
1.1684,72.8
1.1686,73.0
1.1688,73.0
1.169,72.8
1.1692,73.0
1.1694,72.8
1.1696,72.8
1.1698,73.0
1.1700000000000002,72.8
1.1702000000000001,72.8
1.1704,72.6
1.1706,72.8
1.1708,72.6
1.171,72.6
1.1712,72.8
1.1714,72.8
1.1716,72.8
1.1718,72.6
1.1720000000000002,72.8
1.1722000000000001,72.6
1.1724,72.8
1.1726,72.8
1.1728,72.8
1.173,72.6
1.1732,72.6
1.1734,72.8
1.1736,73.0
1.1738,73.0
1.1740000000000002,72.8
1.1742000000000001,72.8
1.1744,72.8
1.1746,72.8
1.1748,72.8
1.175,72.8
1.1752,72.8
1.1754,72.8
1.1756,73.0
1.1758,72.6
1.1760000000000002,72.8
1.1762000000000001,72.8
1.1764000000000001,72.8
1.1766,73.0
1.1768,72.8
1.177,72.8
1.1772,72.8
1.1774,73.0
1.1776,72.6
1.1778,72.8
1.1780000000000002,73.0
1.1782000000000001,73.0
1.1784000000000001,72.8
1.1786,72.6
1.1788,73.0
1.179,72.8
1.1792,72.8
1.1794,72.8
1.1796,72.8
1.1798,72.8
1.1800000000000002,72.8
1.1802000000000001,73.0
1.1804000000000001,72.8
1.1806,72.8
1.1808,72.6
1.181,72.6
1.1812,72.8
1.1814,72.8
1.1816,72.8
1.1818,72.8
1.1820000000000002,72.4
1.1822000000000001,72.6
1.1824000000000001,72.6
1.1826,72.8
1.1828,72.6
1.183,72.6
1.1832,72.6
1.1834,72.8
1.1836,73.0
1.1838,72.8
1.1840000000000002,73.0
1.1842000000000001,73.0
1.1844000000000001,72.8
1.1846,72.8
1.1848,72.8
1.185,72.8
1.1852,72.8
1.1854,73.0
1.1856,72.8
1.1858,72.8
1.1860000000000002,72.8
1.1862000000000001,73.0
1.1864000000000001,72.8
1.1866,72.8
1.1868,72.8
1.187,72.8
1.1872,72.8
1.1874,72.8
1.1876,73.0
1.1878,72.8
1.1880000000000002,72.8
1.1882000000000001,72.8
1.1884000000000001,72.8
1.1886,72.8
1.1888,72.8
1.189,72.8
1.1892,72.8
1.1894,72.8
1.1896,73.0
1.1898,73.0
1.19,72.8
1.1902000000000001,73.0
1.1904000000000001,72.8
1.1906,72.8
1.1908,73.0
1.191,72.8
1.1912,72.8
1.1914,72.8
1.1916,72.8
1.1918,72.8
1.192,72.8
1.1922000000000001,72.8
1.1924000000000001,72.8
1.1926,72.6
1.1928,72.8
1.193,73.0
1.1932,72.8
1.1934,73.0
1.1936,72.8
1.1938,73.0
1.194,72.8
1.1942000000000002,72.8
1.1944000000000001,73.0
1.1946,72.8
1.1948,72.8
1.195,72.8
1.1952,72.6
1.1954,73.0
1.1956,72.6
1.1958,72.8
1.196,72.6
1.1962000000000002,72.8
1.1964000000000001,73.0
1.1966,73.0
1.1968,72.8
1.197,72.8
1.1972,73.0
1.1974,72.6
1.1976,72.8
1.1978,73.0
1.198,72.8
1.1982000000000002,72.8
1.1984000000000001,73.0
1.1986,72.8
1.1988,72.8
1.199,73.0
1.1992,73.0
1.1994,72.8
1.1996,73.0
1.1998,72.8
1.2,73.0
1.2002000000000002,72.8
1.2004000000000001,73.0
1.2006000000000001,72.6
1.2008,72.8
1.201,72.8
1.2012,72.8
1.2014,72.8
1.2016,72.8
1.2018,72.6
1.202,72.8
1.2022000000000002,72.6
1.2024000000000001,73.0
1.2026000000000001,72.8
1.2028,73.0
1.203,72.6
1.2032,72.8
1.2034,72.8
1.2036,72.8
1.2038,73.0
1.204,72.8
1.2042000000000002,72.6
1.2044000000000001,72.8
1.2046000000000001,72.8
1.2048,73.0
1.205,72.8
1.2052,73.0
1.2054,72.8
1.2056,72.8
1.2058,72.8
1.206,72.8
1.2062000000000002,72.8
1.2064000000000001,73.0
1.2066000000000001,72.8
1.2068,72.8
1.207,72.8
1.2072,73.0
1.2074,73.0
1.2076,72.8
1.2078,72.8
1.208,73.0
1.2082000000000002,72.8
1.2084000000000001,72.8
1.2086000000000001,72.8
1.2088,72.8
1.209,72.8
1.2092,73.0
1.2094,73.0
1.2096,72.8
1.2098,73.0
1.21,72.8
1.2102000000000002,73.0
1.2104000000000001,72.6
1.2106000000000001,72.8
1.2108,72.8
1.211,73.0
1.2112,72.8
1.2114,72.8
1.2116,73.0
1.2118,72.8
1.212,72.8
1.2122000000000002,72.6
1.2124000000000001,72.8
1.2126000000000001,72.8
1.2128,73.0
1.213,72.8
1.2132,72.8
1.2134,73.0
1.2136,72.8
1.2138,72.8
1.214,72.8
1.2142000000000002,72.8
1.2144000000000001,73.0
1.2146000000000001,72.8
1.2148,72.8
1.215,72.8
1.2152,72.8
1.2154,72.6
1.2156,72.8
1.2158,72.6
1.216,72.8
1.2162,72.8
1.2164000000000001,72.8
1.2166000000000001,73.0
1.2168,72.8
1.217,73.0
1.2172,72.8
1.2174,73.0
1.2176,72.8
1.2178,72.8
1.218,72.8
1.2182,73.0
1.2184000000000001,73.0
1.2186000000000001,72.8
1.2188,73.0
1.219,72.8
1.2192,72.8
1.2194,72.8
1.2196,72.8
1.2198,72.8
1.22,72.8
1.2202,72.8
1.2204000000000002,72.6
1.2206000000000001,72.6
1.2208,72.8
1.221,73.0
1.2212,72.8
1.2214,72.8
1.2216,72.6
1.2218,73.0
1.222,72.6
1.2222,73.0
1.2224000000000002,72.8
1.2226000000000001,72.8
1.2228,72.8
1.223,72.6
1.2232,72.8
1.2234,72.8
1.2236,72.8
1.2238,72.8
1.224,72.8
1.2242,72.8
1.2244000000000002,72.8
1.2246000000000001,72.8
1.2248,72.6
1.225,73.0
1.2252,72.8
1.2254,73.0
1.2256,73.0
1.2258,72.8
1.226,72.6
1.2262,73.0
1.2264000000000002,72.8
1.2266000000000001,73.0
1.2268000000000001,72.8
1.227,72.8
1.2272,72.8
1.2274,72.8
1.2276,72.6
1.2278,72.8
1.228,72.8
1.2282,72.8
1.2284000000000002,73.0
1.2286000000000001,72.8
1.2288000000000001,72.8
1.229,72.8
1.2292,72.8
1.2294,72.8
1.2296,72.8
1.2298,72.6
1.23,72.8
1.2302,73.0
1.2304000000000002,72.8
1.2306000000000001,72.6
1.2308000000000001,73.0
1.231,72.8
1.2312,72.6
1.2314,73.0
1.2316,72.6
1.2318,72.8
1.232,72.8
1.2322,72.8
1.2324000000000002,72.8
1.2326000000000001,73.0
1.2328000000000001,72.8
1.233,72.8
1.2332,72.8
1.2334,72.8
1.2336,72.8
1.2338,73.0
1.234,72.8
1.2342,73.0
1.2344000000000002,72.8
1.2346000000000001,72.8
1.2348000000000001,72.6
1.235,72.6
1.2352,72.8
1.2354,72.8
1.2356,72.6
1.2358,72.8
1.236,72.8
1.2362,72.8
1.2364000000000002,72.8
1.2366000000000001,72.8
1.2368000000000001,73.0
1.237,72.8
1.2372,73.0
1.2374,72.8
1.2376,73.0
1.2378,72.6
1.238,73.0
1.2382,72.8
1.2384000000000002,72.8
1.2386000000000001,72.6
1.2388000000000001,72.8
1.239,72.8
1.2392,72.8
1.2394,73.0
1.2396,72.8
1.2398,73.0
1.24,73.0
1.2402,72.8
1.2404000000000002,72.6
1.2406000000000001,73.0
1.2408000000000001,72.8
1.241,72.8
1.2412,72.8
1.2414,72.6
1.2416,72.8
1.2418,72.6
1.242,73.0
1.2422,72.8
1.2424,72.8
1.2426000000000001,72.6
1.2428000000000001,73.0
1.243,73.0
1.2432,72.6
1.2434,72.8
1.2436,72.8
1.2438,72.8
1.244,73.0
1.2442,72.8
1.2444,73.0
1.2446000000000002,72.8
1.2448000000000001,73.0
1.245,72.8
1.2452,73.0
1.2454,73.0
1.2456,72.8
1.2458,72.8
1.246,72.8
1.2462,73.0
1.2464,72.8
1.2466000000000002,72.8
1.2468000000000001,73.0
1.247,72.8
1.2472,72.8
1.2474,72.8
1.2476,72.8
1.2478,73.0
1.248,72.8
1.2482,72.8
1.2484,72.6
1.2486000000000002,72.8
1.2488000000000001,72.8
1.249,73.0
1.2492,73.0
1.2494,72.8
1.2496,73.0
1.2498,73.0
1.25,72.8
1.2502,73.0
1.2504,72.8
1.2506000000000002,72.8
1.2508000000000001,72.8
1.2510000000000001,72.8
1.2512,73.0
1.2514,72.8
1.2516,72.6
1.2518,72.8
1.252,72.8
1.2522,72.6
1.2524,73.0
1.2526000000000002,72.8
1.2528000000000001,72.8
1.2530000000000001,73.0
1.2532,73.0
1.2534,72.8
1.2536,73.0
1.2538,73.0
1.254,73.0
1.2542,73.0
1.2544,72.8
1.2546000000000002,72.6
1.2548000000000001,72.8
1.2550000000000001,72.6
1.2552,72.6
1.2554,72.8
1.2556,72.8
1.2558,73.0
1.256,72.8
1.2562,72.8
1.2564,73.0
1.2566000000000002,72.8
1.2568000000000001,72.6
1.2570000000000001,73.0
1.2572,73.0
1.2574,72.8
1.2576,72.8
1.2578,72.8
1.258,72.8
1.2582,72.6
1.2584,72.8
1.2586000000000002,72.8
1.2588000000000001,73.0
1.2590000000000001,73.0
1.2592,72.8
1.2594,73.0
1.2596,73.0
1.2598,72.8
1.26,72.6
1.2602,72.6
1.2604,72.8
1.2606000000000002,73.0
1.2608000000000001,72.8
1.2610000000000001,72.8
1.2612,72.8
1.2614,72.8
1.2616,72.8
1.2618,72.8
1.262,72.6
1.2622,72.8
1.2624,72.6
1.2626000000000002,72.8
1.2628000000000001,72.8
1.2630000000000001,72.8
1.2632,73.0
1.2634,73.0
1.2636,72.8
1.2638,72.8
1.264,72.8
1.2642,73.0
1.2644,72.8
1.2646000000000002,72.8
1.2648000000000001,72.8
1.2650000000000001,73.0
1.2652,73.0
1.2654,72.8
1.2656,72.8
1.2658,72.8
1.266,73.0
1.2662,72.6
1.2664,72.8
1.2666000000000002,72.8
1.2668000000000001,72.8
1.2670000000000001,72.8
1.2672,72.8
1.2674,73.0
1.2676,73.0
1.2678,72.8
1.268,72.8
1.2682,73.0
1.2684,72.8
1.2686,72.8
1.2688000000000001,72.8
1.2690000000000001,72.8
1.2692,72.8
1.2694,73.0
1.2696,73.0
1.2698,72.8
1.27,73.0
1.2702,72.8
1.2704,72.8
1.2706,73.0
1.2708000000000002,72.6
1.2710000000000001,73.0
1.2712,72.6
1.2714,72.8
1.2716,72.8
1.2718,72.8
1.272,72.6
1.2722,72.8
1.2724,72.6
1.2726,73.0
1.2728000000000002,72.8
1.2730000000000001,72.8
1.2732,72.8
1.2734,72.6
1.2736,73.0
1.2738,73.0
1.274,72.8
1.2742,72.8
1.2744,72.6
1.2746,73.0
1.2748000000000002,72.6
1.2750000000000001,72.8
1.2752000000000001,72.8
1.2754,72.8
1.2756,73.0
1.2758,72.8
1.276,72.8
1.2762,73.0
1.2764,72.8
1.2766,72.6
1.2768000000000002,72.8
1.2770000000000001,72.8
1.2772000000000001,72.8
1.2774,72.8
1.2776,73.0
1.2778,72.8
1.278,73.0
1.2782,72.8
1.2784,72.6
1.2786,72.8
1.2788000000000002,73.0
1.2790000000000001,73.0
1.2792000000000001,72.8
1.2794,72.8
1.2796,73.0
1.2798,72.6
1.28,72.6
1.2802,72.8
1.2804,72.8
1.2806,72.8
1.2808000000000002,72.6
1.2810000000000001,72.6
1.2812000000000001,73.0
1.2814,72.8
1.2816,73.0
1.2818,72.8
1.282,72.6
1.2822,72.6
1.2824,72.8
1.2826,72.8
1.2828000000000002,72.6
1.2830000000000001,72.8
1.2832000000000001,73.0
1.2834,72.8
1.2836,72.8
1.2838,73.0
1.284,73.0
1.2842,72.8
1.2844,73.0
1.2846,72.8
1.2848000000000002,72.8
1.2850000000000001,73.0
1.2852000000000001,73.0
1.2854,72.8
1.2856,73.0
1.2858,73.0
1.286,72.8
1.2862,73.0
1.2864,73.0
1.2866,72.8
1.2868000000000002,72.8
1.2870000000000001,72.8
1.2872000000000001,73.0
1.2874,73.0
1.2876,73.0
1.2878,73.0
1.288,72.8
1.2882,72.6
1.2884,72.8
1.2886,73.0
1.2888000000000002,72.8
1.2890000000000001,72.8
1.2892000000000001,72.8
1.2894,72.8
1.2896,72.6
1.2898,72.8
1.29,73.0
1.2902,72.8
1.2904,73.0
1.2906,72.8
1.2908000000000002,72.6
1.2910000000000001,72.6
1.2912000000000001,72.8
1.2914,73.0
1.2916,72.6
1.2918,72.8
1.292,72.8
1.2922,72.6
1.2924,72.8
1.2926,73.0
1.2928000000000002,73.0
1.2930000000000001,72.8
1.2932000000000001,73.0
1.2934,72.6
1.2936,73.0
1.2938,72.8
1.294,72.8
1.2942,72.8
1.2944,73.0
1.2946,72.8
1.2948000000000002,72.8
1.2950000000000002,72.6
1.2952000000000001,72.8
1.2954,72.8
1.2956,73.0
1.2958,72.6
1.296,73.0
1.2962,73.0
1.2964,72.6
1.2966,73.0
1.2968,73.0
1.2970000000000002,73.0
1.2972000000000001,72.8
1.2974,72.8
1.2976,72.8
1.2978,73.0
1.298,72.8
1.2982,73.0
1.2984,72.8
1.2986,72.8
1.2988,72.8
1.2990000000000002,72.8
1.2992000000000001,72.8
1.2994,72.8
1.2996,72.6
1.2998,72.6
1.3,73.0
1.3002,72.8
1.3004,72.8
1.3006,72.8
1.3008,72.6
1.3010000000000002,72.8
1.3012000000000001,72.6
1.3014000000000001,73.0
1.3016,72.8
1.3018,72.8
1.302,72.6
1.3022,72.8
1.3024,72.8
1.3026,72.8
1.3028,73.0
1.3030000000000002,72.8
1.3032000000000001,72.8
1.3034000000000001,72.8
1.3036,72.8
1.3038,73.0
1.304,73.0
1.3042,73.0
1.3044,72.6
1.3046,72.6
1.3048,73.0
1.3050000000000002,72.8
1.3052000000000001,72.8
1.3054000000000001,72.8
1.3056,73.0
1.3058,72.8
1.306,72.8
1.3062,72.8
1.3064,72.8
1.3066,72.8
1.3068,72.8
1.3070000000000002,72.8
1.3072000000000001,73.0
1.3074000000000001,72.8
1.3076,72.8
1.3078,73.0
1.308,72.8
1.3082,72.8
1.3084,73.0
1.3086,73.0
1.3088,72.8
1.3090000000000002,72.6
1.3092000000000001,72.8
1.3094000000000001,72.8
1.3096,73.0
1.3098,72.6
1.31,73.0
1.3102,73.0
1.3104,72.6
1.3106,73.0
1.3108,72.8
1.3110000000000002,72.8
1.3112000000000001,72.8
1.3114000000000001,72.8
1.3116,72.6
1.3118,72.8
1.312,72.6
1.3122,72.8
1.3124,73.0
1.3126,72.8
1.3128,72.8
1.3130000000000002,72.8
1.3132000000000001,72.8
1.3134000000000001,72.8
1.3136,72.8
1.3138,72.8
1.314,72.8
1.3142,72.8
1.3144,72.6
1.3146,72.8
1.3148,72.8
1.3150000000000002,72.8
1.3152000000000001,72.8
1.3154000000000001,72.8
1.3156,73.0
1.3158,72.8
1.316,72.8
1.3162,72.6
1.3164,73.0
1.3166,73.0
1.3168,73.0
1.3170000000000002,72.8
1.3172000000000001,72.6
1.3174000000000001,73.0
1.3176,72.8
1.3178,72.8
1.318,72.8
1.3182,72.8
1.3184,73.0
1.3186,72.8
1.3188,72.8
1.3190000000000002,72.8
1.3192000000000002,73.2
1.3194000000000001,72.6
1.3196,72.4
1.3198,73.0
1.32,73.0
1.3202,72.6
1.3204,72.8
1.3206,72.8
1.3208,72.8
1.3210000000000002,72.6
1.3212000000000002,72.8
1.3214000000000001,72.8
1.3216,73.0
1.3218,72.8
1.322,72.8
1.3222,72.6
1.3224,72.8
1.3226,72.8
1.3228,72.8
1.323,72.8
1.3232000000000002,73.0
1.3234000000000001,72.8
1.3236,72.8
1.3238,72.8
1.324,72.8
1.3242,72.6
1.3244,72.8
1.3246,73.0
1.3248,73.0
1.325,72.8
1.3252000000000002,72.8
1.3254000000000001,72.8
1.3256000000000001,72.6
1.3258,73.0
1.326,72.8
1.3262,72.8
1.3264,72.8
1.3266,72.8
1.3268,72.8
1.327,72.8
1.3272000000000002,72.8
1.3274000000000001,72.8
1.3276000000000001,73.0
1.3278,72.8
1.328,72.8
1.3282,72.8
1.3284,72.8
1.3286,72.8
1.3288,72.8
1.329,72.8
1.3292000000000002,72.8
1.3294000000000001,73.0
1.3296000000000001,73.0
1.3298,73.0
1.33,72.8
1.3302,72.6
1.3304,73.0
1.3306,72.6
1.3308,72.8
1.331,72.8
1.3312000000000002,72.6
1.3314000000000001,72.8
1.3316000000000001,73.0
1.3318,72.8
1.332,73.0
1.3322,72.8
1.3324,73.0
1.3326,72.8
1.3328,73.0
1.333,72.8
1.3332000000000002,73.0
1.3334000000000001,72.8
1.3336000000000001,72.8
1.3338,72.8
1.334,73.0
1.3342,72.6
1.3344,72.8
1.3346,72.6
1.3348,72.8
1.335,73.0
1.3352000000000002,72.8
1.3354000000000001,72.8
1.3356000000000001,72.8
1.3358,72.8
1.336,72.6
1.3362,72.8
1.3364,72.8
1.3366,73.0
1.3368,73.0
1.337,73.2
1.3372000000000002,72.8
1.3374000000000001,72.8
1.3376000000000001,72.8
1.3378,72.8
1.338,72.8
1.3382,73.0
1.3384,72.8
1.3386,72.8
1.3388,72.8
1.339,73.0
1.3392000000000002,72.8
1.3394000000000001,72.6
1.3396000000000001,72.8
1.3398,72.8
1.34,72.6
1.3402,72.8
1.3404,72.8
1.3406,72.8
1.3408,72.8
1.341,73.2
1.3412000000000002,72.8
1.3414000000000001,72.8
1.3416000000000001,72.6
1.3418,72.6
1.342,72.8
1.3422,72.8
1.3424,73.0
1.3426,72.8
1.3428,72.6
1.343,72.8
1.3432000000000002,72.8
1.3434000000000001,73.0
1.3436000000000001,72.8
1.3438,73.0
1.344,72.8
1.3442,72.8
1.3444,72.8
1.3446,72.6
1.3448,72.8
1.345,73.0
1.3452000000000002,72.8
1.3454000000000002,73.0
1.3456000000000001,72.8
1.3458,72.8
1.346,73.0
1.3462,72.8
1.3464,72.8
1.3466,73.0
1.3468,73.0
1.347,72.8
1.3472000000000002,73.0
1.3474000000000002,73.0
1.3476000000000001,72.6
1.3478,72.8
1.348,72.8
1.3482,72.8
1.3484,73.0
1.3486,72.8
1.3488,72.8
1.349,72.6
1.3492,73.0
1.3494000000000002,72.8
1.3496000000000001,72.8
1.3498,73.0
1.35,72.8
1.3502,73.0
1.3504,72.6
1.3506,72.8
1.3508,73.0
1.351,72.6
1.3512,72.8
1.3514000000000002,72.8
1.3516000000000001,72.6
1.3518000000000001,72.8
1.352,73.0
1.3522,72.8
1.3524,72.8
1.3526,73.0
1.3528,72.8
1.353,72.8
1.3532,73.0
1.3534000000000002,72.8
1.3536000000000001,72.8
1.3538000000000001,73.0
1.354,72.6
1.3542,73.0
1.3544,72.8
1.3546,72.8
1.3548,73.0
1.355,72.8
1.3552,72.8
1.3554000000000002,73.0
1.3556000000000001,73.0
1.3558000000000001,72.6
1.356,72.8
1.3562,73.0
1.3564,73.0
1.3566,72.8
1.3568,72.8
1.357,72.8
1.3572,72.8
1.3574000000000002,73.0
1.3576000000000001,72.8
1.3578000000000001,72.8
1.358,73.0
1.3582,73.0
1.3584,72.8
1.3586,73.0
1.3588,72.8
1.359,72.8
1.3592,72.6
1.3594000000000002,72.8
1.3596000000000001,73.0
1.3598000000000001,72.8
1.36,72.8
1.3602,72.8
1.3604,73.0
1.3606,72.6
1.3608,73.0
1.361,72.6
1.3612,73.0
1.3614000000000002,72.6
1.3616000000000001,72.8
1.3618000000000001,72.8
1.362,72.8
1.3622,72.8
1.3624,73.0
1.3626,72.8
1.3628,73.0
1.363,73.0
1.3632,72.8
1.3634000000000002,72.8
1.3636000000000001,73.0
1.3638000000000001,72.8
1.364,72.8
1.3642,72.8
1.3644,72.8
1.3646,72.8
1.3648,72.8
1.365,72.8
1.3652,72.6
1.3654000000000002,72.8
1.3656000000000001,72.8
1.3658000000000001,72.8
1.366,72.8
1.3662,72.8
1.3664,72.8
1.3666,73.0
1.3668,72.8
1.367,72.8
1.3672,73.0
1.3674000000000002,72.8
1.3676000000000001,72.6
1.3678000000000001,72.8
1.368,73.0
1.3682,72.8
1.3684,72.6
1.3686,72.8
1.3688,72.8
1.369,72.8
1.3692,72.8
1.3694000000000002,72.8
1.3696000000000002,72.8
1.3698000000000001,72.6
1.37,73.0
1.3702,72.8
1.3704,72.8
1.3706,73.0
1.3708,72.6
1.371,72.8
1.3712,72.8
1.3714000000000002,72.8
1.3716000000000002,73.0
1.3718000000000001,73.0
1.372,72.8
1.3722,72.8
1.3724,72.8
1.3726,72.8
1.3728,73.0
1.373,72.8
1.3732,72.8
1.3734000000000002,72.8
1.3736000000000002,72.8
1.3738000000000001,72.8
1.374,72.8
1.3742,72.6
1.3744,72.8
1.3746,73.0
1.3748,72.8
1.375,72.8
1.3752,72.8
1.3754,72.8
1.3756000000000002,72.6
1.3758000000000001,73.0
1.3760000000000001,72.8
1.3762,72.8
1.3764,72.8
1.3766,72.8
1.3768,72.8
1.377,72.6
1.3772,73.0
1.3774,72.8
1.3776000000000002,72.8
1.3778000000000001,72.8
1.3780000000000001,72.8
1.3782,73.0
1.3784,73.0
1.3786,73.0
1.3788,72.6
1.379,72.6
1.3792,73.0
1.3794,73.0
1.3796000000000002,73.0
1.3798000000000001,72.8
1.3800000000000001,72.8
1.3802,73.0
1.3804,72.6
1.3806,73.0
1.3808,72.8
1.381,73.0
1.3812,72.8
1.3814,72.6
1.3816000000000002,72.8
1.3818000000000001,73.0
1.3820000000000001,72.8
1.3822,73.0
1.3824,72.8
1.3826,72.8
1.3828,72.8
1.383,72.8
1.3832,72.8
1.3834,72.8
1.3836000000000002,72.8
1.3838000000000001,73.0
1.3840000000000001,73.0
1.3842,73.0
1.3844,72.8
1.3846,72.6
1.3848,73.0
1.385,73.0
1.3852,73.0
1.3854,73.0
1.3856000000000002,72.8
1.3858000000000001,73.0
1.3860000000000001,72.8
1.3862,72.8
1.3864,73.0
1.3866,73.0
1.3868,72.8
1.387,72.8
1.3872,72.6
1.3874,72.8
1.3876000000000002,72.8
1.3878000000000001,72.8
1.3880000000000001,72.8
1.3882,72.8
1.3884,72.8
1.3886,72.8
1.3888,73.0
1.389,72.8
1.3892,72.8
1.3894,73.0
1.3896000000000002,72.6
1.3898000000000001,72.8
1.3900000000000001,72.8
1.3902,72.6
1.3904,72.8
1.3906,72.8
1.3908,72.6
1.391,73.0
1.3912,72.6
1.3914,72.8
1.3916000000000002,73.0
1.3918000000000001,72.8
1.3920000000000001,72.8
1.3922,72.8
1.3924,73.0
1.3926,73.0
1.3928,72.8
1.393,72.8
1.3932,72.8
1.3934,72.8
1.3936000000000002,72.4
1.3938000000000001,72.8
1.3940000000000001,72.8
1.3942,72.8
1.3944,73.0
1.3946,72.6
1.3948,72.8
1.395,72.8
1.3952,72.8
1.3954,72.6
1.3956000000000002,72.8
1.3958000000000002,72.8
1.3960000000000001,73.0
1.3962,72.8
1.3964,72.8
1.3966,72.8
1.3968,73.0
1.397,72.8
1.3972,72.8
1.3974,73.0
1.3976000000000002,72.8
1.3978000000000002,73.0
1.3980000000000001,72.8
1.3982,72.8
1.3984,73.0
1.3986,72.8
1.3988,72.6
1.399,73.0
1.3992,73.0
1.3994,72.8
1.3996000000000002,72.8
1.3998000000000002,72.8
1.4000000000000001,73.0
1.4002000000000001,72.8
1.4004,72.8
1.4006,72.8
1.4008,73.0
1.401,72.8
1.4012,72.8
1.4014,73.0
1.4016,72.8
1.4018000000000002,72.8
1.4020000000000001,73.0
1.4022000000000001,72.6
1.4024,72.8
1.4026,73.0
1.4028,72.8
1.403,72.8
1.4032,72.8
1.4034,72.8
1.4036,72.8
1.4038000000000002,72.8
1.4040000000000001,72.8
1.4042000000000001,72.8
1.4044,72.8
1.4046,72.8
1.4048,72.6
1.405,72.8
1.4052,73.0
1.4054,72.8
1.4056,72.8
1.4058000000000002,72.8
1.4060000000000001,73.0
1.4062000000000001,73.0
1.4064,73.0
1.4066,72.8
1.4068,72.8
1.407,72.6
1.4072,73.0
1.4074,72.8
1.4076,73.0
1.4078000000000002,72.8
1.4080000000000001,72.8
1.4082000000000001,72.8
1.4084,72.8
1.4086,73.0
1.4088,72.8
1.409,73.0
1.4092,73.0
1.4094,72.8
1.4096,72.8
1.4098000000000002,72.6
1.4100000000000001,72.8
1.4102000000000001,72.8
1.4104,72.8
1.4106,72.8
1.4108,72.8
1.411,72.6
1.4112,73.0
1.4114,73.0
1.4116,73.0
1.4118000000000002,72.8
1.4120000000000001,73.0
1.4122000000000001,72.8
1.4124,73.0
1.4126,72.8
1.4128,72.8
1.413,72.8
1.4132,72.8
1.4134,72.8
1.4136,72.6
1.4138000000000002,72.8
1.4140000000000001,73.0
1.4142000000000001,73.0
1.4144,72.8
1.4146,72.8
1.4148,73.0
1.415,72.8
1.4152,72.6
1.4154,72.8
1.4156,73.0
1.4158000000000002,73.0
1.4160000000000001,73.0
1.4162000000000001,72.8
1.4164,72.8
1.4166,72.8
1.4168,72.8
1.417,72.8
1.4172,72.8
1.4174,72.8
1.4176,73.0
1.4178000000000002,72.8
1.4180000000000001,73.0
1.4182000000000001,73.0
1.4184,72.6
1.4186,72.6
1.4188,73.0
1.419,72.8
1.4192,72.8
1.4194,72.8
1.4196,72.4
1.4198000000000002,72.8
1.4200000000000002,72.8
1.4202000000000001,73.0
1.4204,72.6
1.4206,72.8
1.4208,72.8
1.421,72.8
1.4212,73.0
1.4214,72.6
1.4216,72.8
1.4218000000000002,73.0
1.4220000000000002,72.8
1.4222000000000001,72.8
1.4224,72.8
1.4226,73.0
1.4228,72.8
1.423,72.8
1.4232,72.8
1.4234,73.0
1.4236,73.0
1.4238000000000002,73.0
1.4240000000000002,72.8
1.4242000000000001,72.8
1.4244,73.0
1.4246,72.8
1.4248,73.0
1.425,72.8
1.4252,72.8
1.4254,72.6
1.4256,72.8
1.4258000000000002,73.0
1.4260000000000002,72.8
1.4262000000000001,72.8
1.4264000000000001,72.8
1.4266,72.8
1.4268,72.6
1.427,72.8
1.4272,72.8
1.4274,73.0
1.4276,73.0
1.4278,72.8
1.4280000000000002,72.8
1.4282000000000001,73.0
1.4284000000000001,73.0
1.4286,72.8
1.4288,73.0
1.429,72.6
1.4292,72.8
1.4294,72.8
1.4296,72.6
1.4298,73.0
1.4300000000000002,72.8
1.4302000000000001,72.8
1.4304000000000001,72.8
1.4306,73.0
1.4308,72.8
1.431,72.8
1.4312,73.0
1.4314,72.8
1.4316,72.8
1.4318,72.8
1.4320000000000002,73.0
1.4322000000000001,72.8
1.4324000000000001,72.8
1.4326,72.8
1.4328,72.8
1.433,73.0
1.4332,72.8
1.4334,72.8
1.4336,72.6
1.4338,72.8
1.4340000000000002,73.0
1.4342000000000001,73.0
1.4344000000000001,72.8
1.4346,72.8
1.4348,72.8
1.435,72.6
1.4352,72.8
1.4354,72.8
1.4356,72.8
1.4358,73.0
1.4360000000000002,72.6
1.4362000000000001,72.8
1.4364000000000001,73.0
1.4366,73.0
1.4368,72.8
1.437,72.6
1.4372,72.8
1.4374,73.0
1.4376,72.8
1.4378,73.0
1.4380000000000002,73.0
1.4382000000000001,72.8
1.4384000000000001,72.6
1.4386,73.0
1.4388,72.8
1.439,72.8
1.4392,72.6
1.4394,72.6
1.4396,72.8
1.4398,72.6
1.4400000000000002,72.8
1.4402000000000001,72.8
1.4404000000000001,72.6
1.4406,72.8
1.4408,72.8
1.441,72.8
1.4412,72.8
1.4414,72.8
1.4416,73.0
1.4418,72.8
1.4420000000000002,73.0
1.4422000000000001,72.8
1.4424000000000001,73.0
1.4426,72.8
1.4428,72.8
1.443,72.8
1.4432,72.8
1.4434,72.8
1.4436,72.8
1.4438,72.8
1.4440000000000002,72.8
1.4442000000000002,72.8
1.4444000000000001,72.8
1.4446,72.8
1.4448,72.8
1.445,73.0
1.4452,73.0
1.4454,73.0
1.4456,72.8
1.4458,73.0
1.4460000000000002,72.8
1.4462000000000002,72.8
1.4464000000000001,72.8
1.4466,72.8
1.4468,73.0
1.447,72.8
1.4472,72.8
1.4474,73.0
1.4476,72.8
1.4478,73.0
1.4480000000000002,72.8
1.4482000000000002,72.8
1.4484000000000001,72.8
1.4486,72.8
1.4488,72.8
1.449,72.6
1.4492,73.0
1.4494,72.6
1.4496,72.8
1.4498,72.8
1.4500000000000002,72.6
1.4502000000000002,72.8
1.4504000000000001,72.8
1.4506000000000001,72.6
1.4508,72.8
1.451,73.0
1.4512,73.0
1.4514,72.8
1.4516,73.0
1.4518,72.8
1.4520000000000002,72.8
1.4522000000000002,72.8
1.4524000000000001,72.8
1.4526000000000001,72.6
1.4528,73.0
1.453,72.6
1.4532,72.8
1.4534,72.8
1.4536,72.8
1.4538,72.8
1.454,72.8
1.4542000000000002,72.8
1.4544000000000001,72.8
1.4546000000000001,73.0
1.4548,72.8
1.455,73.0
1.4552,72.8
1.4554,72.8
1.4556,72.8
1.4558,73.0
1.456,73.0
1.4562000000000002,72.8
1.4564000000000001,73.0
1.4566000000000001,73.0
1.4568,72.8
1.457,73.0
1.4572,72.8
1.4574,72.8
1.4576,72.8
1.4578,72.8
1.458,72.8
1.4582000000000002,72.6
1.4584000000000001,73.0
1.4586000000000001,73.0
1.4588,72.8
1.459,72.8
1.4592,72.8
1.4594,73.0
1.4596,72.6
1.4598,72.8
1.46,72.8
1.4602000000000002,73.0
1.4604000000000001,72.8
1.4606000000000001,72.8
1.4608,72.8
1.461,72.8
1.4612,72.6
1.4614,73.0
1.4616,72.8
1.4618,72.8
1.462,72.8
1.4622000000000002,73.0
1.4624000000000001,73.0
1.4626000000000001,72.8
1.4628,72.8
1.463,73.0
1.4632,72.8
1.4634,73.0
1.4636,72.6
1.4638,72.8
1.464,72.8
1.4642000000000002,72.8
1.4644000000000001,72.8
1.4646000000000001,72.8
1.4648,73.0
1.465,72.8
1.4652,72.8
1.4654,72.8
1.4656,72.8
1.4658,72.8
1.466,72.8
1.4662000000000002,73.0
1.4664000000000001,72.6
1.4666000000000001,73.0
1.4668,72.8
1.467,72.8
1.4672,72.8
1.4674,72.8
1.4676,72.8
1.4678,72.8
1.468,72.8
1.4682000000000002,72.8
1.4684000000000001,72.8
1.4686000000000001,73.0
1.4688,72.6
1.469,72.8
1.4692,72.8
1.4694,72.8
1.4696,72.8
1.4698,72.6
1.47,72.8
1.4702000000000002,73.0
1.4704000000000002,72.6
1.4706000000000001,72.8
1.4708,73.0
1.471,73.0
1.4712,72.8
1.4714,73.0
1.4716,72.8
1.4718,73.0
1.472,72.8
1.4722000000000002,72.8
1.4724000000000002,72.6
1.4726000000000001,72.8
1.4728,72.6
1.473,72.8
1.4732,72.8
1.4734,72.8
1.4736,72.8
1.4738,72.8
1.474,72.8
1.4742000000000002,72.8
1.4744000000000002,72.8
1.4746000000000001,72.8
1.4748,73.0
1.475,72.8
1.4752,72.8
1.4754,73.0
1.4756,72.8
1.4758,72.8
1.476,72.8
1.4762000000000002,72.8
1.4764000000000002,72.8
1.4766000000000001,72.8
1.4768000000000001,73.0
1.477,72.8
1.4772,73.0
1.4774,73.0
1.4776,72.8
1.4778,72.8
1.478,72.8
1.4782000000000002,72.8
1.4784000000000002,73.0
1.4786000000000001,72.8
1.4788000000000001,72.8
1.479,72.6
1.4792,73.0
1.4794,72.8
1.4796,73.0
1.4798,72.6
1.48,72.8
1.4802,72.6
1.4804000000000002,73.0
1.4806000000000001,73.0
1.4808000000000001,72.8
1.481,73.0
1.4812,72.8
1.4814,73.0
1.4816,73.0
1.4818,72.8
1.482,73.0
1.4822,72.8
1.4824000000000002,73.0
1.4826000000000001,72.8
1.4828000000000001,72.8
1.483,73.0
1.4832,72.8
1.4834,72.8
1.4836,72.8
1.4838,72.8
1.484,72.8
1.4842,72.8
1.4844000000000002,73.0
1.4846000000000001,72.8
1.4848000000000001,73.0
1.485,72.8
1.4852,72.8
1.4854,73.0
1.4856,73.0
1.4858,72.8
1.486,72.8
1.4862,72.6
1.4864000000000002,73.0
1.4866000000000001,72.8
1.4868000000000001,73.0
1.487,72.8
1.4872,72.6
1.4874,72.8
1.4876,72.8
1.4878,72.8
1.488,72.8
1.4882,72.8
1.4884000000000002,73.0
1.4886000000000001,72.6
1.4888000000000001,72.8
1.489,72.8
1.4892,72.8
1.4894,73.0
1.4896,72.8
1.4898,72.6
1.49,72.8
1.4902,72.6
1.4904000000000002,72.8
1.4906000000000001,73.0
1.4908000000000001,72.8
1.491,73.0
1.4912,72.8
1.4914,72.8
1.4916,73.0
1.4918,72.8
1.492,72.8
1.4922,72.8
1.4924000000000002,73.0
1.4926000000000001,72.8
1.4928000000000001,72.8
1.493,72.8
1.4932,72.8
1.4934,72.8
1.4936,73.0
1.4938,72.8
1.494,73.0
1.4942,72.8
1.4944000000000002,72.6
1.4946000000000002,73.0
1.4948000000000001,72.8
1.495,73.0
1.4952,72.8
1.4954,72.8
1.4956,72.8
1.4958,73.0
1.496,72.8
1.4962,72.8
1.4964000000000002,72.6
1.4966000000000002,72.8
1.4968000000000001,73.0
1.497,72.8
1.4972,72.8
1.4974,73.0
1.4976,72.8
1.4978,72.6
1.498,73.0
1.4982,72.8
1.4984000000000002,73.0
1.4986000000000002,73.0
1.4988000000000001,72.6
1.499,72.8
1.4992,72.8
1.4994,72.8
1.4996,72.8
1.4998,72.8
1.5,72.8
1.5002,72.8
1.5004000000000002,73.0
1.5006000000000002,72.6
1.5008000000000001,73.0
1.5010000000000001,73.0
1.5012,72.8
1.5014,72.8
1.5016,73.0
1.5018,73.0
1.502,72.8
1.5022,72.8
1.5024000000000002,72.8
1.5026000000000002,72.8
1.5028000000000001,72.8
1.5030000000000001,72.8
1.5032,72.8
1.5034,72.8
1.5036,73.0
1.5038,72.8
1.504,73.0
1.5042,72.8
1.5044000000000002,73.0
1.5046000000000002,72.8
1.5048000000000001,72.8
1.5050000000000001,73.0
1.5052,73.0
1.5054,72.8
1.5056,73.0
1.5058,72.8
1.506,72.6
1.5062,73.0
1.5064,73.0
1.5066000000000002,72.8
1.5068000000000001,72.8
1.5070000000000001,72.8
1.5072,72.8
1.5074,73.0
1.5076,73.0
1.5078,72.8
1.508,73.0
1.5082,73.0
1.5084,72.8
1.5086000000000002,72.8
1.5088000000000001,72.8
1.5090000000000001,72.8
1.5092,73.0
1.5094,72.6
1.5096,72.6
1.5098,73.0
1.51,72.8
1.5102,72.8
1.5104,72.8
1.5106000000000002,73.0
1.5108000000000001,72.8
1.5110000000000001,72.8
1.5112,72.8
1.5114,73.0
1.5116,72.8
1.5118,73.0
1.512,72.8
1.5122,72.8
1.5124,72.8
1.5126000000000002,72.8
1.5128000000000001,72.8
1.5130000000000001,72.8
1.5132,73.0
1.5134,72.8
1.5136,72.8
1.5138,73.0
1.514,72.8
1.5142,72.8
1.5144,72.8
1.5146000000000002,73.0
1.5148000000000001,73.0
1.5150000000000001,72.6
1.5152,72.8
1.5154,72.8
1.5156,72.8
1.5158,72.8
1.516,73.0
1.5162,72.8
1.5164,73.0
1.5166000000000002,73.0
1.5168000000000001,73.0
1.5170000000000001,73.0
1.5172,73.0
1.5174,72.8
1.5176,72.6
1.5178,73.0
1.518,72.8
1.5182,72.8
1.5184,72.8
1.5186000000000002,72.8
1.5188000000000001,72.8
1.5190000000000001,72.8
1.5192,72.8
1.5194,72.8
1.5196,72.8
1.5198,72.8
1.52,72.6
1.5202,72.8
1.5204,72.8
1.5206000000000002,73.0
1.5208000000000002,72.8
1.5210000000000001,72.6
1.5212,73.0
1.5214,72.8
1.5216,72.8
1.5218,72.8
1.522,72.8
1.5222,72.8
1.5224,72.8
1.5226000000000002,73.0
1.5228000000000002,72.8
1.5230000000000001,73.0
1.5232,73.0
1.5234,72.8
1.5236,73.0
1.5238,72.8
1.524,72.8
1.5242,73.0
1.5244,73.0
1.5246000000000002,72.8
1.5248000000000002,72.8
1.5250000000000001,72.8
1.5252000000000001,73.0
1.5254,72.8
1.5256,72.8
1.5258,72.8
1.526,72.8
1.5262,72.8
1.5264,72.6
1.5266000000000002,73.0
1.5268000000000002,72.8
1.5270000000000001,72.8
1.5272000000000001,72.8
1.5274,73.0
1.5276,73.0
1.5278,72.8
1.528,73.0
1.5282,72.8
1.5284,73.0
1.5286000000000002,72.6
1.5288000000000002,72.8
1.5290000000000001,72.8
1.5292000000000001,72.6
1.5294,73.0
1.5296,73.0
1.5298,72.8
1.53,73.0
1.5302,73.0
1.5304,73.0
1.5306000000000002,72.8
1.5308000000000002,73.0
1.5310000000000001,73.0
1.5312000000000001,73.0
1.5314,72.8
1.5316,72.8
1.5318,72.6
1.532,72.6
1.5322,72.6
1.5324,72.8
1.5326000000000002,72.8
1.5328000000000002,72.8
1.5330000000000001,72.8
1.5332000000000001,72.6
1.5334,72.8
1.5336,72.8
1.5338,73.0
1.534,72.6
1.5342,73.0
1.5344,72.8
1.5346,72.8
1.5348000000000002,72.8
1.5350000000000001,72.8
1.5352000000000001,72.8
1.5354,72.8
1.5356,72.8
1.5358,72.8
1.536,73.0
1.5362,73.0
1.5364,72.8
1.5366,73.0
1.5368000000000002,73.0
1.5370000000000001,73.0
1.5372000000000001,72.6
1.5374,72.8
1.5376,72.8
1.5378,72.8
1.538,72.8
1.5382,72.8
1.5384,72.6
1.5386,72.8
1.5388000000000002,72.8
1.5390000000000001,73.0
1.5392000000000001,72.8
1.5394,72.6
1.5396,72.6
1.5398,72.8
1.54,72.8
1.5402,73.0
1.5404,73.0
1.5406,73.0
1.5408000000000002,72.8
1.5410000000000001,72.8
1.5412000000000001,73.0
1.5414,72.8
1.5416,72.8
1.5418,73.0
1.542,72.8
1.5422,73.0
1.5424,72.8
1.5426,72.8
1.5428000000000002,72.8
1.5430000000000001,72.8
1.5432000000000001,73.0
1.5434,72.8
1.5436,73.0
1.5438,72.8
1.544,72.6
1.5442,72.8
1.5444,72.8
1.5446,72.8
1.5448000000000002,73.0
1.5450000000000002,73.0
1.5452000000000001,72.8
1.5454,72.8
1.5456,72.8
1.5458,72.6
1.546,72.8
1.5462,72.8
1.5464,73.0
1.5466,72.8
1.5468000000000002,73.0
1.5470000000000002,72.8
1.5472000000000001,73.0
1.5474,73.0
1.5476,72.8
1.5478,73.0
1.548,72.8
1.5482,72.8
1.5484,72.6
1.5486,73.0
1.5488000000000002,72.8
1.5490000000000002,72.6
1.5492000000000001,72.8
1.5494,72.8
1.5496,72.6
1.5498,73.0
1.55,73.0
1.5502,72.8
1.5504,72.8
1.5506,73.0
1.5508000000000002,72.8
1.5510000000000002,73.0
1.5512000000000001,72.8
1.5514000000000001,72.8
1.5516,72.6
1.5518,73.0
1.552,72.6
1.5522,73.0
1.5524,72.8
1.5526,73.0
1.5528000000000002,73.0
1.5530000000000002,72.8
1.5532000000000001,73.0
1.5534000000000001,72.8
1.5536,73.0
1.5538,72.8
1.554,73.0
1.5542,73.0
1.5544,72.8
1.5546,72.8
1.5548000000000002,72.8
1.5550000000000002,72.8
1.5552000000000001,72.8
1.5554000000000001,72.8
1.5556,73.0
1.5558,72.8
1.556,73.0
1.5562,72.8
1.5564,72.8
1.5566,73.0
1.5568000000000002,73.0
1.5570000000000002,72.8
1.5572000000000001,72.6
1.5574000000000001,73.0
1.5576,72.8
1.5578,72.8
1.558,72.8
1.5582,72.6
1.5584,73.0
1.5586,72.8
1.5588000000000002,73.0
1.5590000000000002,72.8
1.5592000000000001,72.8
1.5594000000000001,72.6
1.5596,72.8
1.5598,72.8
1.56,72.8
1.5602,72.8
1.5604,72.8
1.5606,72.8
1.5608,72.8
1.5610000000000002,73.0
1.5612000000000001,72.8
1.5614000000000001,72.8
1.5616,73.0
1.5618,72.8
1.562,72.8
1.5622,72.8
1.5624,72.8
1.5626,72.8
1.5628,72.8
1.5630000000000002,73.0
1.5632000000000001,72.8
1.5634000000000001,73.0
1.5636,73.0
1.5638,72.8
1.564,72.8
1.5642,72.8
1.5644,73.0
1.5646,73.0
1.5648,72.8
1.5650000000000002,72.8
1.5652000000000001,72.8
1.5654000000000001,72.8
1.5656,72.8
1.5658,73.0
1.566,73.0
1.5662,73.0
1.5664,72.8
1.5666,72.8
1.5668,72.8
1.5670000000000002,72.8
1.5672000000000001,72.8
1.5674000000000001,73.0
1.5676,73.0
1.5678,72.8
1.568,72.8
1.5682,72.8
1.5684,72.8
1.5686,72.8
1.5688,72.6
1.5690000000000002,72.6
1.5692000000000002,73.0
1.5694000000000001,72.8
1.5696,72.8
1.5698,73.0
1.57,73.0
1.5702,72.8
1.5704,73.0
1.5706,73.0
1.5708,72.8
1.5710000000000002,72.8
1.5712000000000002,72.8
1.5714000000000001,72.6
1.5716,73.0
1.5718,72.8
1.572,72.8
1.5722,72.6
1.5724,72.8
1.5726,73.0
1.5728,72.8
1.5730000000000002,72.8
1.5732000000000002,72.8
1.5734000000000001,73.0
1.5736,72.6
1.5738,73.0
1.574,73.0
1.5742,73.0
1.5744,73.0
1.5746,73.0
1.5748,72.8
1.5750000000000002,72.8
1.5752000000000002,72.8
1.5754000000000001,72.6
1.5756000000000001,72.8
1.5758,72.8
1.576,73.0
1.5762,72.8
1.5764,73.0
1.5766,72.8
1.5768,72.6
1.5770000000000002,72.8
1.5772000000000002,73.0
1.5774000000000001,73.0
1.5776000000000001,72.8
1.5778,72.8
1.578,72.8
1.5782,73.0
1.5784,72.8
1.5786,72.8
1.5788,72.8
1.5790000000000002,72.8
1.5792000000000002,72.8
1.5794000000000001,72.6
1.5796000000000001,73.0
1.5798,73.0
1.58,73.0
1.5802,72.8
1.5804,72.8
1.5806,73.0
1.5808,72.8
1.5810000000000002,72.8
1.5812000000000002,72.8
1.5814000000000001,72.8
1.5816000000000001,73.0
1.5818,73.0
1.582,72.8
1.5822,72.8
1.5824,72.8
1.5826,72.8
1.5828,73.0
1.5830000000000002,73.0
1.5832000000000002,72.8
1.5834000000000001,72.8
1.5836000000000001,72.8
1.5838,72.8
1.584,72.8
1.5842,72.8
1.5844,72.8
1.5846,72.8
1.5848,72.8
1.5850000000000002,73.0
1.5852000000000002,72.8
1.5854000000000001,72.8
1.5856000000000001,72.8
1.5858,72.8
1.586,73.0
1.5862,72.8
1.5864,72.8
1.5866,72.8
1.5868,73.0
1.587,72.8
1.5872000000000002,72.8
1.5874000000000001,73.0
1.5876000000000001,72.8
1.5878,72.8
1.588,72.8
1.5882,72.8
1.5884,72.8
1.5886,72.6
1.5888,72.6
1.589,73.0
1.5892000000000002,72.8
1.5894000000000001,73.0
1.5896000000000001,73.0
1.5898,72.8
1.59,73.0
1.5902,72.8
1.5904,73.0
1.5906,72.8
1.5908,72.8
1.591,72.8
1.5912000000000002,72.6
1.5914000000000001,72.8
1.5916000000000001,72.8
1.5918,72.8
1.592,72.8
1.5922,72.8
1.5924,72.8
1.5926,73.0
1.5928,72.8
1.593,72.8
1.5932000000000002,72.8
1.5934000000000001,72.8
1.5936000000000001,73.0
1.5938,72.8
1.594,72.8
1.5942,72.8
1.5944,72.8
1.5946,73.0
1.5948,73.0
1.595,73.0
1.5952000000000002,73.0
1.5954000000000002,72.8
1.5956000000000001,73.0
1.5958,72.8
1.596,73.0
1.5962,73.0
1.5964,73.0
1.5966,72.6
1.5968,72.6
1.597,72.8
1.5972000000000002,73.0
1.5974000000000002,73.0
1.5976000000000001,72.8
1.5978,72.8
1.598,73.0
1.5982,72.8
1.5984,73.0
1.5986,72.6
1.5988,73.0
1.599,72.6
1.5992000000000002,72.8
1.5994000000000002,72.8
1.5996000000000001,72.8
1.5998,72.8
1.6,72.8
1.6002,72.8
1.6004,73.0
1.6006,72.8
1.6008,73.0
1.601,72.8
1.6012000000000002,72.8
1.6014000000000002,72.8
1.6016000000000001,73.0
1.6018000000000001,73.0
1.602,73.0
1.6022,72.8
1.6024,73.0
1.6026,73.0
1.6028,72.8
1.603,73.0
1.6032000000000002,72.8
1.6034000000000002,72.8
1.6036000000000001,73.0
1.6038000000000001,73.0
1.604,73.0
1.6042,72.8
1.6044,73.0
1.6046,73.0
1.6048,72.8
1.605,72.6
1.6052000000000002,72.8
1.6054000000000002,72.8
1.6056000000000001,73.0
1.6058000000000001,72.8
1.606,72.8
1.6062,72.8
1.6064,72.8
1.6066,72.8
1.6068,72.6
1.607,73.0
1.6072000000000002,73.0
1.6074000000000002,72.8
1.6076000000000001,73.0
1.6078000000000001,72.6
1.608,72.8
1.6082,72.8
1.6084,72.8
1.6086,72.8
1.6088,73.0
1.609,72.8
1.6092000000000002,72.8
1.6094000000000002,72.8
1.6096000000000001,72.8
1.6098000000000001,72.8
1.61,73.0
1.6102,73.0
1.6104,72.8
1.6106,73.0
1.6108,72.8
1.611,72.8
1.6112000000000002,72.8
1.6114000000000002,72.8
1.6116000000000001,73.0
1.6118000000000001,72.8
1.612,72.8
1.6122,72.8
1.6124,72.8
1.6126,72.8
1.6128,73.0
1.613,73.0
1.6132,72.8
1.6134000000000002,73.0
1.6136000000000001,72.8
1.6138000000000001,73.0
1.614,73.0
1.6142,72.8
1.6144,72.8
1.6146,72.8
1.6148,72.8
1.615,72.8
1.6152,73.0
1.6154000000000002,73.0
1.6156000000000001,73.0
1.6158000000000001,72.8
1.616,73.0
1.6162,73.0
1.6164,72.6
1.6166,72.8
1.6168,72.8
1.617,73.0
1.6172,73.0
1.6174000000000002,72.8
1.6176000000000001,72.8
1.6178000000000001,72.8
1.618,72.6
1.6182,73.0
1.6184,72.6
1.6186,72.8
1.6188,72.6
1.619,72.6
1.6192,73.2
1.6194000000000002,72.6
1.6196000000000002,72.8
1.6198000000000001,72.8
1.62,72.8
1.6202,72.8
1.6204,72.8
1.6206,73.0
1.6208,73.0
1.621,72.8
1.6212,72.8
1.6214000000000002,73.0
1.6216000000000002,73.0
1.6218000000000001,73.0
1.622,73.0
1.6222,73.0
1.6224,73.0
1.6226,72.8
1.6228,72.8
1.623,72.8
1.6232,72.8
1.6234000000000002,73.0
1.6236000000000002,72.8
1.6238000000000001,73.0
1.624,73.0
1.6242,72.8
1.6244,73.0
1.6246,73.0
1.6248,72.8
1.625,72.8
1.6252,72.8
1.6254000000000002,72.8
1.6256000000000002,72.8
1.6258000000000001,72.8
1.6260000000000001,72.8
1.6262,73.0
1.6264,73.0
1.6266,72.8
1.6268,72.8
1.627,73.0
1.6272,72.8
1.6274000000000002,72.8
1.6276000000000002,72.8
1.6278000000000001,72.8
1.6280000000000001,72.8
1.6282,72.6
1.6284,72.8
1.6286,72.8
1.6288,72.8
1.629,73.0
1.6292,73.0
1.6294000000000002,72.8
1.6296000000000002,73.0
1.6298000000000001,73.0
1.6300000000000001,73.0
1.6302,73.0
1.6304,73.0
1.6306,72.8
1.6308,72.8
1.631,72.8
1.6312,72.6
1.6314000000000002,73.0
1.6316000000000002,72.8
1.6318000000000001,72.8
1.6320000000000001,72.8
1.6322,73.0
1.6324,72.8
1.6326,72.8
1.6328,73.0
1.633,72.8
1.6332,73.0
1.6334000000000002,72.6
1.6336000000000002,73.0
1.6338000000000001,73.0
1.6340000000000001,72.8
1.6342,73.0
1.6344,72.8
1.6346,72.8
1.6348,72.6
1.635,72.8
1.6352,73.0
1.6354000000000002,73.0
1.6356000000000002,72.6
1.6358000000000001,73.0
1.6360000000000001,73.0
1.6362,72.6
1.6364,72.8
1.6366,73.0
1.6368,73.0
1.637,72.8
1.6372,72.8
1.6374000000000002,72.8
1.6376000000000002,72.8
1.6378000000000001,72.6
1.6380000000000001,73.0
1.6382,72.6
1.6384,72.8
1.6386,72.6
1.6388,72.6
1.639,73.0
1.6392,72.8
1.6394,73.0
1.6396000000000002,73.0
1.6398000000000001,72.8
1.6400000000000001,73.2
1.6402,73.0
1.6404,72.8
1.6406,72.8
1.6408,72.8
1.641,72.8
1.6412,72.8
1.6414,73.0
1.6416000000000002,73.0
1.6418000000000001,72.8
1.6420000000000001,73.0
1.6422,72.8
1.6424,72.8
1.6426,73.0
1.6428,72.8
1.643,73.0
1.6432,72.8
1.6434,72.8
1.6436000000000002,73.0
1.6438000000000001,73.0
1.6440000000000001,73.0
1.6442,72.8
1.6444,72.8
1.6446,72.6
1.6448,72.8
1.645,73.0
1.6452,72.8
1.6454,72.8
1.6456000000000002,72.8
1.6458000000000002,72.8
1.6460000000000001,72.8
1.6462,73.0
1.6464,72.8
1.6466,73.0
1.6468,72.8
1.647,72.8
1.6472,72.8
1.6474,72.8
1.6476000000000002,72.8
1.6478000000000002,72.8
1.6480000000000001,72.8
1.6482,72.8
1.6484,73.0
1.6486,72.8
1.6488,73.0
1.649,73.0
1.6492,73.0
1.6494,72.8
1.6496000000000002,73.0
1.6498000000000002,72.8
1.6500000000000001,72.8
1.6502000000000001,73.0
1.6504,72.8
1.6506,72.8
1.6508,72.8
1.651,72.8
1.6512,72.8
1.6514,72.6
1.6516000000000002,72.8
1.6518000000000002,73.0
1.6520000000000001,73.0
1.6522000000000001,72.8
1.6524,72.8
1.6526,72.8
1.6528,72.6
1.653,72.8
1.6532,72.8
1.6534,72.8
1.6536000000000002,73.0
1.6538000000000002,72.8
1.6540000000000001,72.8
1.6542000000000001,73.0
1.6544,72.8
1.6546,73.0
1.6548,72.8
1.655,73.0
1.6552,72.8
1.6554,73.0
1.6556000000000002,73.0
1.6558000000000002,72.8
1.6560000000000001,72.8
1.6562000000000001,72.8
1.6564,72.8
1.6566,73.0
1.6568,73.0
1.657,72.8
1.6572,72.8
1.6574,73.0
1.6576000000000002,72.6
1.6578000000000002,73.0
1.6580000000000001,72.6
1.6582000000000001,72.8
1.6584,72.8
1.6586,72.6
1.6588,72.8
1.659,72.8
1.6592,72.8
1.6594,72.8
1.6596000000000002,72.8
1.6598000000000002,73.0
1.6600000000000001,73.0
1.6602000000000001,73.0
1.6604,72.8
1.6606,73.0
1.6608,73.0
1.661,72.8
1.6612,72.8
1.6614,73.0
1.6616000000000002,72.8
1.6618000000000002,73.0
1.6620000000000001,72.8
1.6622000000000001,72.8
1.6624,72.8
1.6626,72.8
1.6628,72.8
1.663,72.8
1.6632,72.8
1.6634,73.0
1.6636000000000002,73.0
1.6638000000000002,73.0
1.6640000000000001,72.8
1.6642000000000001,72.8
1.6644,72.6
1.6646,72.8
1.6648,72.8
1.665,73.0
1.6652,72.8
1.6654,73.0
1.6656,72.8
1.6658000000000002,72.8
1.6660000000000001,73.0
1.6662000000000001,72.8
1.6664,72.8
1.6666,73.0
1.6668,72.8
1.667,73.0
1.6672,72.8
1.6674,72.8
1.6676,72.6
1.6678000000000002,72.8
1.6680000000000001,72.8
1.6682000000000001,72.8
1.6684,72.8
1.6686,73.0
1.6688,72.8
1.669,72.8
1.6692,73.0
1.6694,73.0
1.6696,72.8
1.6698000000000002,73.0
1.6700000000000002,72.8
1.6702000000000001,72.8
1.6704,72.6
1.6706,73.0
1.6708,72.8
1.671,72.8
1.6712,72.6
1.6714,72.8
1.6716,73.0
1.6718000000000002,72.8
1.6720000000000002,72.8
1.6722000000000001,72.8
1.6724,73.0
1.6726,72.6
1.6728,73.0
1.673,73.0
1.6732,72.8
1.6734,72.8
1.6736,73.0
1.6738000000000002,72.8
1.6740000000000002,73.0
1.6742000000000001,72.8
1.6744,72.8
1.6746,72.6
1.6748,73.0
1.675,72.8
1.6752,72.8
1.6754,73.0
1.6756,73.0
1.6758000000000002,72.8
1.6760000000000002,72.6
1.6762000000000001,73.0
1.6764000000000001,72.8
1.6766,72.8
1.6768,72.8
1.677,72.8
1.6772,72.8
1.6774,72.6
1.6776,72.8
1.6778000000000002,72.8
1.6780000000000002,72.6
1.6782000000000001,72.8
1.6784000000000001,72.8
1.6786,73.0
1.6788,72.8
1.679,73.0
1.6792,73.0
1.6794,72.8
1.6796,73.0
1.6798000000000002,72.8
1.6800000000000002,72.8
1.6802000000000001,72.8
1.6804000000000001,73.0
1.6806,72.8
1.6808,72.8
1.681,73.0
1.6812,73.0
1.6814,72.8
1.6816,73.0
1.6818000000000002,73.0
1.6820000000000002,72.6
1.6822000000000001,73.0
1.6824000000000001,73.0
1.6826,72.8
1.6828,72.8
1.683,72.8
1.6832,73.0
1.6834,73.0
1.6836,73.0
1.6838000000000002,72.8
1.6840000000000002,72.8
1.6842000000000001,72.6
1.6844000000000001,72.8
1.6846,72.8
1.6848,73.0
1.685,72.8
1.6852,72.8
1.6854,72.8
1.6856,73.0
1.6858000000000002,73.0
1.6860000000000002,72.6
1.6862000000000001,73.0
1.6864000000000001,73.0
1.6866,72.6
1.6868,72.8
1.687,72.8
1.6872,72.8
1.6874,73.0
1.6876,72.8
1.6878000000000002,72.8
1.6880000000000002,73.0
1.6882000000000001,72.6
1.6884000000000001,72.8
1.6886,73.0
1.6888,73.0
1.689,72.8
1.6892,72.8
1.6894,72.8
1.6896,72.8
1.6898000000000002,72.8
1.6900000000000002,72.8
1.6902000000000001,72.8
1.6904000000000001,73.0
1.6906,72.8
1.6908,72.8
1.691,72.8
1.6912,72.8
1.6914,72.8
1.6916,72.8
1.6918,72.8
1.6920000000000002,73.0
1.6922000000000001,73.0
1.6924000000000001,72.8
1.6926,72.8
1.6928,72.8
1.693,72.8
1.6932,72.8
1.6934,72.8
1.6936,72.8
1.6938,72.8
1.6940000000000002,72.8
1.6942000000000002,73.0
1.6944000000000001,72.8
1.6946,72.8
1.6948,72.8
1.695,72.8
1.6952,72.8
1.6954,73.0
1.6956,72.8
1.6958,72.8
1.6960000000000002,72.8
1.6962000000000002,73.0
1.6964000000000001,72.8
1.6966,72.8
1.6968,72.8
1.697,73.0
1.6972,72.8
1.6974,73.0
1.6976,72.8
1.6978,72.6
1.6980000000000002,72.4
1.6982000000000002,72.8
1.6984000000000001,73.0
1.6986,72.8
1.6988,73.0
1.699,73.0
1.6992,72.8
1.6994,73.0
1.6996,72.8
1.6998,72.8
1.7000000000000002,72.8
1.7002000000000002,73.0
1.7004000000000001,72.8
1.7006000000000001,72.8
1.7008,72.8
1.701,73.0
1.7012,72.8
1.7014,72.8
1.7016,72.8
1.7018,72.8
1.7020000000000002,73.0
1.7022000000000002,72.8
1.7024000000000001,72.8
1.7026000000000001,72.6
1.7028,72.6
1.703,72.8
1.7032,72.8
1.7034,73.0
1.7036,72.8
1.7038,72.8
1.7040000000000002,72.6
1.7042000000000002,72.8
1.7044000000000001,73.0
1.7046000000000001,73.0
1.7048,73.0
1.705,72.8
1.7052,73.0
1.7054,72.8
1.7056,72.8
1.7058,72.8
1.7060000000000002,73.0
1.7062000000000002,72.8
1.7064000000000001,72.8
1.7066000000000001,72.8
1.7068,72.8
1.707,72.8
1.7072,72.8
1.7074,72.8
1.7076,72.8
1.7078,73.0
1.7080000000000002,72.6
1.7082000000000002,73.0
1.7084000000000001,73.0
1.7086000000000001,73.0
1.7088,72.6
1.709,72.8
1.7092,72.8
1.7094,72.8
1.7096,72.8
1.7098,72.8
1.7100000000000002,72.8
1.7102000000000002,72.8
1.7104000000000001,72.6
1.7106000000000001,72.8
1.7108,72.8
1.711,72.8
1.7112,72.8
1.7114,72.8
1.7116,72.8
1.7118,73.0
1.7120000000000002,72.8
1.7122000000000002,72.8
1.7124000000000001,72.8
1.7126000000000001,72.8
1.7128,72.8
1.713,72.8
1.7132,73.0
1.7134,73.0
1.7136,72.8
1.7138,72.8
1.7140000000000002,72.8
1.7142000000000002,72.8
1.7144000000000001,72.8
1.7146000000000001,72.8
1.7148,72.8
1.715,73.0
1.7152,73.0
1.7154,72.8
1.7156,72.6
1.7158,72.8
1.7160000000000002,72.8
1.7162000000000002,72.8
1.7164000000000001,72.8
1.7166000000000001,72.8
1.7168,72.8
1.717,72.6
1.7172,73.0
1.7174,72.8
1.7176,72.8
1.7178,72.8
1.718,72.8
1.7182000000000002,72.8
1.7184000000000001,72.6
1.7186000000000001,72.8
1.7188,72.8
1.719,72.6
1.7192,73.0
1.7194,73.0
1.7196,72.8
1.7198,72.8
1.72,72.8
1.7202000000000002,72.8
1.7204000000000002,72.8
1.7206000000000001,72.8
1.7208,72.8
1.721,72.8
1.7212,72.8
1.7214,72.8
1.7216,72.8
1.7218,72.8
1.722,72.8
1.7222000000000002,73.0
1.7224000000000002,72.6
1.7226000000000001,72.8
1.7228,73.0
1.723,73.0
1.7232,72.8
1.7234,72.8
1.7236,73.0
1.7238,72.6
1.724,72.8
1.7242000000000002,72.8
1.7244000000000002,73.0
1.7246000000000001,73.0
1.7248,73.0
1.725,73.0
1.7252,72.8
1.7254,72.8
1.7256,72.8
1.7258,73.0
1.726,72.8
1.7262000000000002,72.8
1.7264000000000002,73.0
1.7266000000000001,72.8
1.7268000000000001,73.0
1.727,72.8
1.7272,72.6
1.7274,72.6
1.7276,72.8
1.7278,72.8
1.728,72.8
1.7282000000000002,72.8
1.7284000000000002,72.8
1.7286000000000001,72.8
1.7288000000000001,72.8
1.729,72.8
1.7292,73.0
1.7294,73.0
1.7296,72.8
1.7298,72.6
1.73,72.8
1.7302000000000002,72.6
1.7304000000000002,72.8
1.7306000000000001,72.6
1.7308000000000001,72.8
1.731,73.0
1.7312,73.0
1.7314,72.8
1.7316,73.0
1.7318,73.0
1.732,72.8
1.7322000000000002,73.0
1.7324000000000002,72.8
1.7326000000000001,73.0
1.7328000000000001,72.8
1.733,72.8
1.7332,72.8
1.7334,73.0
1.7336,72.8
1.7338,72.6
1.734,72.8
1.7342000000000002,73.0
1.7344000000000002,72.8
1.7346000000000001,73.0
1.7348000000000001,73.0
1.735,72.8
1.7352,72.6
1.7354,72.8
1.7356,72.8
1.7358,72.8
1.736,72.8
1.7362000000000002,72.8
1.7364000000000002,72.8
1.7366000000000001,73.0
1.7368000000000001,72.8
1.737,73.0
1.7372,72.8
1.7374,72.6
1.7376,72.8
1.7378,72.8
1.738,72.8
1.7382000000000002,72.8
1.7384000000000002,73.0
1.7386000000000001,72.6
1.7388000000000001,72.8
1.739,72.8
1.7392,72.8
1.7394,73.0
1.7396,73.0
1.7398,73.0
1.74,72.8
1.7402000000000002,73.0
1.7404000000000002,72.8
1.7406000000000001,73.0
1.7408000000000001,72.8
1.741,72.8
1.7412,73.0
1.7414,72.8
1.7416,72.8
1.7418,73.0
1.742,73.0
1.7422000000000002,72.8
1.7424000000000002,72.8
1.7426000000000001,73.0
1.7428000000000001,72.8
1.743,73.0
1.7432,72.8
1.7434,73.0
1.7436,72.6
1.7438,72.8
1.744,72.8
1.7442,73.0
1.7444000000000002,73.0
1.7446000000000002,72.8
1.7448000000000001,72.8
1.745,73.0
1.7452,73.0
1.7454,72.8
1.7456,73.0
1.7458,73.0
1.746,73.0
1.7462,72.8
1.7464000000000002,72.8
1.7466000000000002,72.6
1.7468000000000001,72.8
1.747,72.6
1.7472,72.8
1.7474,73.0
1.7476,72.8
1.7478,73.0
1.748,73.0
1.7482,72.8
1.7484000000000002,72.8
1.7486000000000002,72.8
1.7488000000000001,73.0
1.749,73.0
1.7492,72.8
1.7494,72.8
1.7496,72.8
1.7498,73.0
1.75,72.6
1.7502,72.8
1.7504000000000002,72.8
1.7506000000000002,72.8
1.7508000000000001,73.0
1.7510000000000001,72.8
1.7512,72.8
1.7514,73.0
1.7516,72.8
1.7518,72.6
1.752,73.0
1.7522,72.8
1.7524000000000002,72.8
1.7526000000000002,72.8
1.7528000000000001,72.8
1.7530000000000001,73.0
1.7532,72.8
1.7534,72.8
1.7536,72.8
1.7538,72.8
1.754,72.8
1.7542,73.0
1.7544000000000002,73.0
1.7546000000000002,73.0
1.7548000000000001,73.0
1.7550000000000001,72.6
1.7552,72.6
1.7554,72.8
1.7556,72.8
1.7558,72.8
1.756,72.8
1.7562,72.6
1.7564000000000002,72.8
1.7566000000000002,72.6
1.7568000000000001,73.0
1.7570000000000001,72.8
1.7572,72.6
1.7574,72.6
1.7576,72.6
1.7578,73.0
1.758,72.8
1.7582,73.0
1.7584000000000002,73.0
1.7586000000000002,72.8
1.7588000000000001,73.0
1.7590000000000001,72.8
1.7592,73.0
1.7594,72.8
1.7596,73.0
1.7598,72.8
1.76,72.8
1.7602,72.8
1.7604000000000002,73.0
1.7606000000000002,72.8
1.7608000000000001,72.8
1.7610000000000001,73.0
1.7612,72.8
1.7614,72.6
1.7616,72.8
1.7618,73.0
1.762,72.8
1.7622,72.8
1.7624000000000002,73.0
1.7626000000000002,73.0
1.7628000000000001,73.0
1.7630000000000001,72.8
1.7632,72.8
1.7634,72.6
1.7636,72.8
1.7638,73.0
1.764,72.8
1.7642,73.0
1.7644000000000002,72.8
1.7646000000000002,73.0
1.7648000000000001,72.8
1.7650000000000001,73.0
1.7652,72.8
1.7654,72.8
1.7656,73.0
1.7658,72.8
1.766,73.0
1.7662,72.8
1.7664000000000002,72.6
1.7666000000000002,72.8
1.7668000000000001,73.0
1.7670000000000001,72.6
1.7672,73.0
1.7674,72.6
1.7676,72.8
1.7678,73.0
1.768,72.8
1.7682,73.0
1.7684000000000002,72.8
1.7686000000000002,72.8
1.7688000000000001,72.8
1.7690000000000001,72.8
1.7692,73.0
1.7694,72.8
1.7696,72.8
1.7698,72.8
1.77,73.0
1.7702,72.8
1.7704000000000002,72.8
1.7706000000000002,73.0
1.7708000000000002,72.8
1.7710000000000001,72.8
1.7712,73.0
1.7714,73.0
1.7716,72.8
1.7718,72.6
1.772,73.0
1.7722,73.0
1.7724,73.0
1.7726000000000002,73.0
1.7728000000000002,72.8
1.7730000000000001,73.0
1.7732,72.8
1.7734,72.8
1.7736,72.8
1.7738,73.0
1.774,73.0
1.7742,72.8
1.7744,73.0
1.7746000000000002,72.8
1.7748000000000002,72.6
1.7750000000000001,72.6
1.7752000000000001,72.8
1.7754,73.0
1.7756,72.8
1.7758,72.8
1.776,72.8
1.7762,72.8
1.7764,72.8
1.7766000000000002,73.0
1.7768000000000002,72.8
1.7770000000000001,72.8
1.7772000000000001,72.8
1.7774,72.6
1.7776,72.8
1.7778,72.6
1.778,72.8
1.7782,72.8
1.7784,72.8
1.7786000000000002,72.8
1.7788000000000002,72.8
1.7790000000000001,72.8
1.7792000000000001,72.8
1.7794,73.0
1.7796,72.8
1.7798,72.8
1.78,72.8
1.7802,72.8
1.7804,73.0
1.7806000000000002,72.8
1.7808000000000002,73.0
1.7810000000000001,72.8
1.7812000000000001,72.8
1.7814,73.0
1.7816,72.8
1.7818,72.8
1.782,72.8
1.7822,72.8
1.7824,73.0
1.7826000000000002,73.0
1.7828000000000002,72.8
1.7830000000000001,73.0
1.7832000000000001,72.8
1.7834,73.0
1.7836,73.0
1.7838,72.8
1.784,72.8
1.7842,72.8
1.7844,72.8
1.7846000000000002,72.8
1.7848000000000002,73.0
1.7850000000000001,72.8
1.7852000000000001,72.8
1.7854,72.8
1.7856,72.6
1.7858,73.0
1.786,72.8
1.7862,73.0
1.7864,72.8
1.7866000000000002,72.8
1.7868000000000002,72.6
1.7870000000000001,73.0
1.7872000000000001,72.8
1.7874,73.0
1.7876,72.8
1.7878,72.8
1.788,72.8
1.7882,72.8
1.7884,72.8
1.7886000000000002,73.0
1.7888000000000002,72.8
1.7890000000000001,72.8
1.7892000000000001,72.8
1.7894,73.0
1.7896,72.8
1.7898,73.0
1.79,72.6
1.7902,72.6
1.7904,73.0
1.7906000000000002,72.8
1.7908000000000002,72.8
1.7910000000000001,72.8
1.7912000000000001,73.0
1.7914,72.6
1.7916,72.8
1.7918,73.0
1.792,72.8
1.7922,72.8
1.7924,72.8
1.7926000000000002,73.0
1.7928000000000002,73.0
1.7930000000000001,72.8
1.7932000000000001,73.0
1.7934,72.8
1.7936,72.8
1.7938,72.8
1.794,72.8
1.7942,72.8
1.7944,72.8
1.7946000000000002,72.8
1.7948000000000002,72.6
1.7950000000000002,72.8
1.7952000000000001,73.0
1.7954,73.0
1.7956,72.8
1.7958,72.8
1.796,72.8
1.7962,72.8
1.7964,73.0
1.7966000000000002,72.8
1.7968000000000002,72.8
1.7970000000000002,72.8
1.7972000000000001,72.8
1.7974,72.8
1.7976,72.6
1.7978,73.0
1.798,73.0
1.7982,72.8
1.7984,72.8
1.7986,73.0
1.7988000000000002,73.0
1.7990000000000002,72.8
1.7992000000000001,72.8
1.7994,72.8
1.7996,72.8
1.7998,72.8
1.8,72.8
1.8002,72.8
1.8004,72.8
1.8006,72.8
1.8008000000000002,72.8
1.8010000000000002,72.8
1.8012000000000001,72.8
1.8014000000000001,73.0
1.8016,73.0
1.8018,73.0
1.802,72.8
1.8022,73.0
1.8024,72.8
1.8026,72.8
1.8028000000000002,72.8
1.8030000000000002,72.6
1.8032000000000001,72.8
1.8034000000000001,72.8
1.8036,72.8
1.8038,72.8
1.804,72.8
1.8042,73.0
1.8044,72.8
1.8046,72.8
1.8048000000000002,72.8
1.8050000000000002,73.0
1.8052000000000001,72.8
1.8054000000000001,72.6
1.8056,72.8
1.8058,72.6
1.806,73.0
1.8062,72.8
1.8064,72.8
1.8066,72.8
1.8068000000000002,72.8
1.8070000000000002,72.8
1.8072000000000001,72.8
1.8074000000000001,73.0
1.8076,72.8
1.8078,72.6
1.808,73.0
1.8082,72.8
1.8084,73.0
1.8086,72.8
1.8088000000000002,72.8
1.8090000000000002,72.8
1.8092000000000001,73.0
1.8094000000000001,72.8
1.8096,73.0
1.8098,72.8
1.81,72.8
1.8102,73.0
1.8104,72.8
1.8106,72.6
1.8108000000000002,73.0
1.8110000000000002,72.8
1.8112000000000001,72.6
1.8114000000000001,73.0
1.8116,73.0
1.8118,72.8
1.812,72.8
1.8122,72.8
1.8124,73.0
1.8126,73.0
1.8128000000000002,73.0
1.8130000000000002,73.0
1.8132000000000001,72.8
1.8134000000000001,72.8
1.8136,72.8
1.8138,73.0
1.814,72.8
1.8142,72.8
1.8144,72.6
1.8146,72.6
1.8148000000000002,73.0
1.8150000000000002,72.8
1.8152000000000001,73.0
1.8154000000000001,72.8
1.8156,72.6
1.8158,72.8
1.816,72.6
1.8162,73.0
1.8164,72.8
1.8166,73.0
1.8168000000000002,72.6
1.8170000000000002,72.8
1.8172000000000001,72.8
1.8174000000000001,72.8
1.8176,72.8
1.8178,72.8
1.818,72.6
1.8182,73.0
1.8184,73.0
1.8186,72.8
1.8188000000000002,72.8
1.8190000000000002,72.8
1.8192000000000002,72.8
1.8194000000000001,73.0
1.8196,73.0
1.8198,73.0
1.82,72.8
1.8202,73.0
1.8204,73.0
1.8206,72.8
1.8208000000000002,73.0
1.8210000000000002,72.8
1.8212000000000002,73.0
1.8214000000000001,72.6
1.8216,72.8
1.8218,72.8
1.822,72.8
1.8222,73.0
1.8224,72.8
1.8226,72.8
1.8228000000000002,72.6
1.8230000000000002,72.8
1.8232000000000002,72.8
1.8234000000000001,72.8
1.8236,73.0
1.8238,73.0
1.824,72.8
1.8242,72.8
1.8244,72.8
1.8246,72.8
1.8248,72.8
1.8250000000000002,72.8
1.8252000000000002,72.6
1.8254000000000001,73.0
1.8256000000000001,72.6
1.8258,72.8
1.826,72.8
1.8262,72.6
1.8264,72.6
1.8266,72.8
1.8268,72.6
1.8270000000000002,72.8
1.8272000000000002,72.8
1.8274000000000001,73.0
1.8276000000000001,72.8
1.8278,72.8
1.828,72.8
1.8282,73.0
1.8284,72.8
1.8286,72.8
1.8288,72.8
1.8290000000000002,73.0
1.8292000000000002,72.6
1.8294000000000001,72.8
1.8296000000000001,72.8
1.8298,72.8
1.83,73.0
1.8302,72.8
1.8304,72.8
1.8306,73.0
1.8308,72.8
1.8310000000000002,72.6
1.8312000000000002,72.6
1.8314000000000001,72.8
1.8316000000000001,72.8
1.8318,72.8
1.832,72.8
1.8322,72.8
1.8324,72.8
1.8326,72.8
1.8328,72.8
1.8330000000000002,72.8
1.8332000000000002,73.0
1.8334000000000001,72.8
1.8336000000000001,73.0
1.8338,72.8
1.834,73.0
1.8342,72.6
1.8344,72.6
1.8346,73.0
1.8348,73.0
1.8350000000000002,72.8
1.8352000000000002,72.8
1.8354000000000001,72.8
1.8356000000000001,72.8
1.8358,72.6
1.836,72.8
1.8362,72.8
1.8364,72.8
1.8366,72.8
1.8368,73.0
1.8370000000000002,72.8
1.8372000000000002,72.6
1.8374000000000001,72.8
1.8376000000000001,72.8
1.8378,72.8
1.838,72.8
1.8382,73.0
1.8384,73.0
1.8386,72.8
1.8388,72.8
1.8390000000000002,72.8
1.8392000000000002,73.0
1.8394000000000001,73.0
1.8396000000000001,73.0
1.8398,72.8
1.84,72.8
1.8402,72.6
1.8404,72.8
1.8406,72.8
1.8408,72.8
1.8410000000000002,73.0
1.8412000000000002,72.8
1.8414000000000001,72.8
1.8416000000000001,72.8
1.8418,72.8
1.842,73.0
1.8422,72.8
1.8424,73.0
1.8426,72.8
1.8428,73.0
1.8430000000000002,72.8
1.8432000000000002,72.8
1.8434000000000001,72.8
1.8436000000000001,72.8
1.8438,72.8
1.844,72.8
1.8442,72.8
1.8444,72.8
1.8446,72.8
1.8448,73.0
1.8450000000000002,72.8
1.8452000000000002,73.0
1.8454000000000002,72.8
1.8456000000000001,73.0
1.8458,72.8
1.846,72.8
1.8462,73.0
1.8464,72.8
1.8466,72.8
1.8468,73.0
1.8470000000000002,73.0
1.8472000000000002,73.0
1.8474000000000002,72.8
1.8476000000000001,73.0
1.8478,72.8
1.848,72.8
1.8482,72.8
1.8484,72.8
1.8486,72.6
1.8488,73.0
1.8490000000000002,72.6
1.8492000000000002,73.0
1.8494000000000002,72.8
1.8496000000000001,72.8
1.8498,72.8
1.85,72.8
1.8502,72.8
1.8504,73.0
1.8506,72.8
1.8508,72.6
1.851,73.0
1.8512000000000002,72.8
1.8514000000000002,73.0
1.8516000000000001,73.0
1.8518000000000001,73.0
1.852,72.8
1.8522,72.8
1.8524,73.0
1.8526,73.0
1.8528,73.0
1.853,72.8
1.8532000000000002,73.0
1.8534000000000002,72.8
1.8536000000000001,73.0
1.8538000000000001,73.0
1.854,72.8
1.8542,72.6
1.8544,73.0
1.8546,72.8
1.8548,72.8
1.855,72.8
1.8552000000000002,72.6
1.8554000000000002,73.0
1.8556000000000001,72.8
1.8558000000000001,72.8
1.856,72.6
1.8562,72.8
1.8564,72.6
1.8566,72.8
1.8568,72.8
1.857,72.8
1.8572000000000002,72.8
1.8574000000000002,72.8
1.8576000000000001,72.8
1.8578000000000001,72.8
1.858,73.0
1.8582,72.8
1.8584,72.8
1.8586,73.0
1.8588,73.0
1.859,73.0
1.8592000000000002,73.0
1.8594000000000002,72.8
1.8596000000000001,72.8
1.8598000000000001,73.0
1.86,72.8
1.8602,73.0
1.8604,72.8
1.8606,73.0
1.8608,73.0
1.861,73.0
1.8612000000000002,72.6
1.8614000000000002,73.0
1.8616000000000001,73.0
1.8618000000000001,73.0
1.862,72.8
1.8622,73.0
1.8624,72.8
1.8626,72.8
1.8628,73.0
1.863,72.8
1.8632000000000002,72.8
1.8634000000000002,72.8
1.8636000000000001,73.0
1.8638000000000001,72.8
1.864,73.0
1.8642,72.8
1.8644,73.0
1.8646,73.0
1.8648,72.8
1.865,73.0
1.8652000000000002,72.8
1.8654000000000002,72.6
1.8656000000000001,72.8
1.8658000000000001,72.8
1.866,72.8
1.8662,72.8
1.8664,72.8
1.8666,72.8
1.8668,72.8
1.867,73.0
1.8672000000000002,72.8
1.8674000000000002,73.0
1.8676000000000001,73.0
1.8678000000000001,73.0
1.868,72.8
1.8682,73.0
1.8684,72.8
1.8686,73.0
1.8688,72.8
1.869,72.6
1.8692000000000002,72.6
1.8694000000000002,73.0
1.8696000000000002,73.0
1.8698000000000001,72.6
1.87,72.8
1.8702,72.8
1.8704,73.0
1.8706,72.8
1.8708,72.8
1.871,73.0
1.8712000000000002,73.0
1.8714000000000002,72.8
1.8716000000000002,72.8
1.8718000000000001,72.8
1.872,72.8
1.8722,72.8
1.8724,72.8
1.8726,72.8
1.8728,72.8
1.873,73.0
1.8732000000000002,73.0
1.8734000000000002,73.0
1.8736000000000002,73.0
1.8738000000000001,72.6
1.874,72.8
1.8742,72.8
1.8744,73.0
1.8746,72.8
1.8748,72.8
1.875,72.6
1.8752000000000002,73.0
1.8754000000000002,72.8
1.8756000000000002,72.8
1.8758000000000001,72.8
1.8760000000000001,73.0
1.8762,72.8
1.8764,73.0
1.8766,72.8
1.8768,73.0
1.877,72.8
1.8772,73.0
1.8774000000000002,72.8
1.8776000000000002,73.0
1.8778000000000001,72.8
1.8780000000000001,72.8
1.8782,72.8
1.8784,73.0
1.8786,72.8
1.8788,72.8
1.879,72.8
1.8792,73.0
1.8794000000000002,72.8
1.8796000000000002,73.0
1.8798000000000001,72.8
1.8800000000000001,72.6
1.8802,72.8
1.8804,72.8
1.8806,73.0
1.8808,72.6
1.881,72.8
1.8812,73.0
1.8814000000000002,73.0
1.8816000000000002,72.8
1.8818000000000001,72.8
1.8820000000000001,73.0
1.8822,72.8
1.8824,72.8
1.8826,73.0
1.8828,73.0
1.883,72.8
1.8832,72.8
1.8834000000000002,72.8
1.8836000000000002,72.8
1.8838000000000001,73.0
1.8840000000000001,72.8
1.8842,72.8
1.8844,73.0
1.8846,72.6
1.8848,72.8
1.885,72.6
1.8852,72.8
1.8854000000000002,72.8
1.8856000000000002,72.8
1.8858000000000001,72.6
1.8860000000000001,72.8
1.8862,72.6
1.8864,72.8
1.8866,73.0
1.8868,73.0
1.887,72.8
1.8872,73.0
1.8874000000000002,72.8
1.8876000000000002,73.0
1.8878000000000001,72.8
1.8880000000000001,72.8
1.8882,72.8
1.8884,73.0
1.8886,72.8
1.8888,72.8
1.889,72.6
1.8892,72.8
1.8894000000000002,72.8
1.8896000000000002,72.8
1.8898000000000001,72.8
1.8900000000000001,72.8
1.8902,72.8
1.8904,72.6
1.8906,73.0
1.8908,73.0
1.891,72.8
1.8912,73.0
1.8914000000000002,73.0
1.8916000000000002,72.8
1.8918000000000001,72.8
1.8920000000000001,72.8
1.8922,73.0
1.8924,73.0
1.8926,72.8
1.8928,72.8
1.893,73.0
1.8932,72.8
1.8934000000000002,73.0
1.8936000000000002,72.6
1.8938000000000001,72.8
1.8940000000000001,72.8
1.8942,72.8
1.8944,72.8
1.8946,72.8
1.8948,72.8
1.895,72.8
1.8952,72.6
1.8954000000000002,72.8
1.8956000000000002,72.6
1.8958000000000002,73.0
1.8960000000000001,72.8
1.8962,73.0
1.8964,72.8
1.8966,72.8
1.8968,72.8
1.897,73.0
1.8972,73.0
1.8974000000000002,73.0
1.8976000000000002,73.0
1.8978000000000002,72.8
1.8980000000000001,72.8
1.8982,73.0
1.8984,72.8
1.8986,73.0
1.8988,72.6
1.899,73.0
1.8992,72.8
1.8994000000000002,72.8
1.8996000000000002,72.8
1.8998000000000002,73.0
1.9000000000000001,72.8
1.9002000000000001,72.8
1.9004,72.8
1.9006,72.8
1.9008,72.8
1.901,72.8
1.9012,72.8
1.9014000000000002,72.8
1.9016000000000002,72.8
1.9018000000000002,72.8
1.9020000000000001,72.8
1.9022000000000001,72.6
1.9024,73.0
1.9026,72.8
1.9028,73.0
1.903,72.8
1.9032,73.0
1.9034,73.0
1.9036000000000002,72.8
1.9038000000000002,73.0
1.9040000000000001,72.8
1.9042000000000001,73.0
1.9044,72.8
1.9046,73.0
1.9048,72.8
1.905,73.0
1.9052,72.8
1.9054,72.8
1.9056000000000002,72.6
1.9058000000000002,72.8
1.9060000000000001,72.8
1.9062000000000001,73.0
1.9064,73.0
1.9066,72.8
1.9068,72.8
1.907,72.8
1.9072,73.0
1.9074,73.0
1.9076000000000002,72.8
1.9078000000000002,72.8
1.9080000000000001,72.6
1.9082000000000001,73.0
1.9084,72.6
1.9086,72.8
1.9088,72.8
1.909,72.8
1.9092,72.8
1.9094,73.0
1.9096000000000002,72.6
1.9098000000000002,72.8
1.9100000000000001,72.8
1.9102000000000001,72.8
1.9104,72.8
1.9106,72.8
1.9108,73.0
1.911,73.0
1.9112,72.8
1.9114,72.8
1.9116000000000002,73.0
1.9118000000000002,73.0
1.9120000000000001,72.8
1.9122000000000001,72.8
1.9124,72.8
1.9126,73.0
1.9128,73.0
1.913,72.8
1.9132,72.8
1.9134,72.6
1.9136000000000002,72.6
1.9138000000000002,73.0
1.9140000000000001,73.0
1.9142000000000001,72.8
1.9144,72.8
1.9146,72.8
1.9148,72.8
1.915,72.6
1.9152,72.8
1.9154,72.8
1.9156000000000002,72.8
1.9158000000000002,72.6
1.9160000000000001,72.8
1.9162000000000001,73.0
1.9164,72.8
1.9166,72.8
1.9168,73.0
1.917,72.6
1.9172,72.8
1.9174,72.8
1.9176000000000002,72.8
1.9178000000000002,73.0
1.9180000000000001,72.8
1.9182000000000001,72.8
1.9184,72.8
1.9186,72.8
1.9188,73.0
1.919,72.8
1.9192,73.0
1.9194,73.0
1.9196000000000002,72.8
1.9198000000000002,73.0
1.9200000000000002,72.8
1.9202000000000001,72.8
1.9204,72.8
1.9206,73.0
1.9208,73.0
1.921,73.0
1.9212,72.8
1.9214,72.8
1.9216000000000002,73.0
1.9218000000000002,72.8
1.9220000000000002,72.8
1.9222000000000001,72.8
1.9224,73.0
1.9226,73.0
1.9228,72.8
1.923,73.0
1.9232,72.6
1.9234,72.8
1.9236000000000002,72.8
1.9238000000000002,72.8
1.9240000000000002,72.8
1.9242000000000001,72.6
1.9244,72.8
1.9246,72.8
1.9248,73.0
1.925,72.8
1.9252,72.6
1.9254,72.8
1.9256000000000002,73.0
1.9258000000000002,72.8
1.9260000000000002,73.0
1.9262000000000001,72.8
1.9264000000000001,73.0
1.9266,72.8
1.9268,72.8
1.927,73.0
1.9272,72.8
1.9274,72.8
1.9276000000000002,72.8
1.9278000000000002,72.8
1.9280000000000002,72.8
1.9282000000000001,72.8
1.9284000000000001,72.8
1.9286,72.8
1.9288,72.8
1.929,72.8
1.9292,72.8
1.9294,73.0
1.9296,72.8
1.9298000000000002,73.0
1.9300000000000002,72.8
1.9302000000000001,73.0
1.9304000000000001,72.8
1.9306,73.0
1.9308,72.8
1.931,72.8
1.9312,73.0
1.9314,72.8
1.9316,72.8
1.9318000000000002,72.6
1.9320000000000002,72.6
1.9322000000000001,73.0
1.9324000000000001,73.0
1.9326,73.0
1.9328,72.8
1.933,72.8
1.9332,72.6
1.9334,72.8
1.9336,72.8
1.9338000000000002,72.8
1.9340000000000002,72.8
1.9342000000000001,72.8
1.9344000000000001,72.8
1.9346,73.0
1.9348,72.6
1.935,73.0
1.9352,72.8
1.9354,72.6
1.9356,72.6
1.9358000000000002,72.8
1.9360000000000002,73.0
1.9362000000000001,73.0
1.9364000000000001,72.8
1.9366,73.0
1.9368,72.8
1.937,72.8
1.9372,72.8
1.9374,72.8
1.9376,73.0
1.9378000000000002,72.8
1.9380000000000002,72.8
1.9382000000000001,73.0
1.9384000000000001,73.0
1.9386,72.8
1.9388,72.8
1.939,73.0
1.9392,72.8
1.9394,72.8
1.9396,72.8
1.9398000000000002,72.8
1.9400000000000002,73.0
1.9402000000000001,73.0
1.9404000000000001,72.6
1.9406,72.8
1.9408,73.0
1.941,72.8
1.9412,73.0
1.9414,72.6
1.9416,72.8
1.9418000000000002,72.8
1.9420000000000002,73.0
1.9422000000000001,73.0
1.9424000000000001,72.8
1.9426,72.8
1.9428,72.8
1.943,73.0
1.9432,73.0
1.9434,72.8
1.9436,73.0
1.9438000000000002,73.0
1.9440000000000002,72.8
1.9442000000000002,73.0
1.9444000000000001,72.8
1.9446,72.8
1.9448,72.8
1.945,72.6
1.9452,72.6
1.9454,73.0
1.9456,72.6
1.9458000000000002,72.8
1.9460000000000002,73.2
1.9462000000000002,72.8
1.9464000000000001,73.0
1.9466,72.8
1.9468,72.8
1.947,73.0
1.9472,72.8
1.9474,72.8
1.9476,72.6
1.9478000000000002,72.8
1.9480000000000002,72.6
1.9482000000000002,72.8
1.9484000000000001,72.6
1.9486,72.8
1.9488,73.0
1.949,72.8
1.9492,73.0
1.9494,72.8
1.9496,73.0
1.9498000000000002,72.8
1.9500000000000002,72.8
1.9502000000000002,73.0
1.9504000000000001,73.0
1.9506000000000001,72.8
1.9508,72.8
1.951,73.0
1.9512,73.0
1.9514,72.8
1.9516,72.8
1.9518000000000002,72.8
1.9520000000000002,72.8
1.9522000000000002,72.8
1.9524000000000001,72.8
1.9526000000000001,73.0
1.9528,73.0
1.953,72.6
1.9532,72.6
1.9534,72.8
1.9536,73.0
1.9538000000000002,72.8
1.9540000000000002,72.8
1.9542000000000002,72.8
1.9544000000000001,72.8
1.9546000000000001,72.6
1.9548,72.8
1.955,72.6
1.9552,72.8
1.9554,72.6
1.9556,73.0
1.9558,72.8
1.9560000000000002,73.0
1.9562000000000002,72.8
1.9564000000000001,72.6
1.9566000000000001,72.8
1.9568,73.0
1.957,72.8
1.9572,72.8
1.9574,72.8
1.9576,72.8
1.9578,72.6
1.9580000000000002,72.8
1.9582000000000002,73.0
1.9584000000000001,72.8
1.9586000000000001,72.8
1.9588,72.8
1.959,72.8
1.9592,72.8
1.9594,72.8
1.9596,72.8
1.9598,72.8
1.9600000000000002,72.8
1.9602000000000002,72.8
1.9604000000000001,73.0
1.9606000000000001,73.0
1.9608,73.0
1.961,72.8
1.9612,72.8
1.9614,72.8
1.9616,72.8
1.9618,73.0
1.9620000000000002,73.0
1.9622000000000002,72.8
1.9624000000000001,72.8
1.9626000000000001,72.8
1.9628,72.6
1.963,72.8
1.9632,72.8
1.9634,72.8
1.9636,73.0
1.9638,72.6
1.9640000000000002,73.0
1.9642000000000002,72.8
1.9644000000000001,72.6
1.9646000000000001,72.6
1.9648,72.8
1.965,72.8
1.9652,73.0
1.9654,72.8
1.9656,72.8
1.9658,73.0
1.9660000000000002,73.0
1.9662000000000002,72.8
1.9664000000000001,72.8
1.9666000000000001,73.0
1.9668,72.8
1.967,72.8
1.9672,72.6
1.9674,72.6
1.9676,73.0
1.9678,72.6
1.9680000000000002,72.8
1.9682000000000002,72.6
1.9684000000000001,72.8
1.9686000000000001,72.8
1.9688,72.8
1.969,72.8
1.9692,73.0
1.9694,73.0
1.9696,72.8
1.9698,72.8
1.9700000000000002,72.8
1.9702000000000002,72.8
1.9704000000000002,72.8
1.9706000000000001,73.0
1.9708,73.0
1.971,72.8
1.9712,72.8
1.9714,73.0
1.9716,72.8
1.9718,73.0
1.9720000000000002,72.8
1.9722000000000002,72.8
1.9724000000000002,73.0
1.9726000000000001,73.0
1.9728,72.6
1.973,72.8
1.9732,73.0
1.9734,73.0
1.9736,72.6
1.9738,72.8
1.9740000000000002,72.6
1.9742000000000002,73.0
1.9744000000000002,72.8
1.9746000000000001,72.8
1.9748,72.8
1.975,73.0
1.9752,72.6
1.9754,73.0
1.9756,72.8
1.9758,72.8
1.9760000000000002,72.8
1.9762000000000002,73.0
1.9764000000000002,73.0
1.9766000000000001,73.0
1.9768000000000001,73.0
1.977,72.8
1.9772,72.8
1.9774,72.8
1.9776,72.8
1.9778,73.0
1.9780000000000002,72.8
1.9782000000000002,73.0
1.9784000000000002,72.8
1.9786000000000001,72.8
1.9788000000000001,72.8
1.979,72.8
1.9792,73.0
1.9794,73.0
1.9796,72.8
1.9798,72.8
1.9800000000000002,72.8
1.9802000000000002,72.8
1.9804000000000002,73.0
1.9806000000000001,72.8
1.9808000000000001,72.8
1.981,72.8
1.9812,72.8
1.9814,72.8
1.9816,73.0
1.9818,72.8
1.982,73.0
1.9822000000000002,72.8
1.9824000000000002,72.6
1.9826000000000001,73.0
1.9828000000000001,72.8
1.983,72.8
1.9832,73.0
1.9834,72.8
1.9836,72.8
1.9838,73.0
1.984,72.8
1.9842000000000002,72.8
1.9844000000000002,73.0
1.9846000000000001,72.6
1.9848000000000001,73.0
1.985,73.0
1.9852,72.8
1.9854,72.8
1.9856,73.0
1.9858,72.8
1.986,72.8
1.9862000000000002,72.8
1.9864000000000002,72.8
1.9866000000000001,72.8
1.9868000000000001,72.8
1.987,72.8
1.9872,72.6
1.9874,73.0
1.9876,72.8
1.9878,72.8
1.988,72.6
1.9882000000000002,72.8
1.9884000000000002,72.8
1.9886000000000001,72.6
1.9888000000000001,72.8
1.989,72.8
1.9892,72.8
1.9894,72.6
1.9896,73.0
1.9898,72.8
1.99,73.0
1.9902000000000002,72.6
1.9904000000000002,73.0
1.9906000000000001,72.8
1.9908000000000001,72.8
1.991,72.8
1.9912,73.0
1.9914,72.8
1.9916,73.0
1.9918,73.0
1.992,72.8
1.9922000000000002,72.8
1.9924000000000002,72.8
1.9926000000000001,72.6
1.9928000000000001,72.8
1.993,73.0
1.9932,73.0
1.9934,72.8
1.9936,72.8
1.9938,72.6
1.994,73.0
1.9942000000000002,72.6
1.9944000000000002,73.0
1.9946000000000002,72.6
1.9948000000000001,72.8
1.995,72.8
1.9952,72.8
1.9954,73.0
1.9956,73.0
1.9958,72.8
1.996,73.0
1.9962000000000002,72.8
1.9964000000000002,73.0
1.9966000000000002,73.0
1.9968000000000001,73.0
1.997,72.8
1.9972,72.8
1.9974,72.8
1.9976,72.8
1.9978,72.8
1.998,72.8
1.9982000000000002,72.8
1.9984000000000002,72.8
1.9986000000000002,72.8
1.9988000000000001,72.8
1.999,72.8
1.9992,73.0
1.9994,72.8
1.9996,72.8
1.9998,72.8
